timestamp,t7,t8,pz,af3,af4
1740095389.7941,1476.923,4238.462,4129.231,4243.59,4281.538
1740095389.8021,3809.231,4236.923,4109.231,4272.308,4293.333
1740095389.8101,7284.103,4261.538,4145.641,4292.821,4313.846
1740095389.818,2514.872,4228.205,4141.026,4235.897,4271.282
1740095389.826,2278.974,4244.103,4140,4253.333,4296.923
1740095389.8338,7222.564,4299.487,4152.308,4332.308,4367.692
1740095389.8416,4131.282,4253.333,4144.103,4296.923,4322.564
1740095389.8494,1360,4230.769,4137.949,4274.872,4296.923
1740095389.8571,6455.385,4309.744,4164.103,4349.744,4373.846
1740095389.8651,5817.436,4325.128,4149.231,4354.872,4381.026
1740095389.8729,1083.077,4280,4153.333,4308.205,4337.949
1740095389.8809,4789.744,4293.333,4170.256,4319.487,4361.026
1740095389.8887,6896.41,4294.872,4161.538,4313.333,4361.026
1740095389.8966,1807.179,4291.795,4161.538,4320.513,4355.385
1740095389.9044,3364.103,4367.692,4195.897,4407.692,4429.744
1740095389.9124,7499.487,4377.949,4180.513,4409.744,4440
1740095389.9202,3103.59,4300.513,4148.718,4324.103,4361.026
1740095389.9282,1846.154,4310.256,4179.487,4331.282,4358.974
1740095389.9359,6894.359,4368.718,4210.256,4377.949,4404.103
1740095389.9439,4543.59,4333.333,4194.872,4333.846,4368.718
1740095389.9519,1040,4300.513,4176.41,4312.308,4342.051
1740095389.9599,5969.231,4332.821,4195.897,4343.59,4367.179
1740095389.9679,6441.026,4320.513,4183.59,4322.051,4356.41
1740095389.9758,1337.436,4261.538,4138.974,4275.385,4308.205
1740095389.9838,4168.205,4265.641,4108.205,4287.692,4309.744
1740095389.9918,6976.41,4277.949,4122.051,4295.385,4311.795
1740095389.9998,2114.872,4240,4131.282,4269.231,4273.333
1740095390.0076,2851.282,4252.821,4160,4280.513,4286.154
1740095390.0153,7460.513,4308.718,4178.974,4311.282,4341.026
1740095390.0233,3694.359,4274.359,4173.333,4282.564,4321.538
1740095390.0311,1657.436,4252.821,4168.205,4286.667,4307.692
1740095390.0389,6750.769,4322.564,4192.308,4350.769,4367.179
1740095390.0467,5181.538,4322.564,4185.128,4340.513,4367.179
1740095390.0544,953.846,4263.59,4148.205,4283.59,4314.872
1740095390.0622,5267.692,4277.949,4119.487,4296.41,4325.128
1740095390.07,6666.667,4273.333,4107.179,4298.462,4317.436
1740095390.0778,1563.077,4217.949,4133.846,4264.103,4263.59
1740095390.0856,3737.436,4265.128,4182.564,4302.564,4305.128
1740095390.0935,7280,4293.846,4179.487,4305.641,4335.385
1740095390.1013,2553.846,4231.282,4142.051,4258.974,4285.128
1740095390.1091,2196.923,4247.692,4169.231,4296.923,4309.744
1740095390.1171,7191.795,4314.872,4194.872,4343.077,4369.744
1740095390.1251,4196.923,4269.231,4175.897,4275.897,4305.128
1740095390.133,1292.308,4251.282,4150.769,4275.897,4285.128
1740095390.141,6408.205,4329.744,4162.564,4374.872,4382.564
1740095390.1488,5981.538,4311.795,4145.641,4363.077,4378.462
1740095390.1566,1105.641,4245.641,4127.692,4301.026,4304.103
1740095390.1646,4652.308,4296.923,4133.333,4348.205,4346.154
1740095390.1724,6996.923,4312.308,4150.256,4345.641,4363.077
1740095390.1804,1878.974,4219.487,4144.615,4237.949,4273.333
1740095390.1884,3130.256,4227.179,4163.59,4250.256,4275.897
1740095390.1964,7569.231,4294.359,4191.282,4329.231,4341.026
1740095390.2042,3374.359,4266.667,4174.359,4300.513,4325.641
1740095390.2121,1616.41,4260.513,4160.513,4286.667,4322.051
1740095390.2201,6756.923,4288.718,4156.41,4321.026,4339.487
1740095390.2281,4890.256,4229.231,4125.641,4272.308,4281.538
1740095390.2359,998.974,4234.359,4125.641,4258.974,4287.692
1740095390.2439,5620.513,4322.564,4160,4324.615,4365.641
1740095390.2519,6553.846,4282.051,4131.795,4291.282,4323.59
1740095390.2598,1417.436,4200.513,4129.231,4225.641,4243.59
1740095390.2678,3944.615,4282.564,4181.538,4295.897,4310.769
1740095390.2758,7093.333,4307.179,4187.692,4296.41,4324.103
1740095390.2838,2223.59,4194.359,4137.949,4178.974,4220.513
1740095390.2918,2496.41,4207.692,4155.385,4204.615,4241.026
1740095390.2995,7429.744,4297.436,4163.59,4308.205,4322.051
1740095390.3073,3973.333,4227.179,4117.949,4246.667,4251.282
1740095390.3151,1368.205,4167.179,4101.026,4196.41,4213.333
1740095390.3231,6510.769,4264.615,4146.154,4277.436,4317.949
1740095390.3309,5581.538,4301.538,4158.462,4279.487,4331.282
1740095390.3386,970.256,4257.436,4155.385,4242.564,4278.974
1740095390.3464,4955.897,4290.769,4177.436,4307.179,4318.974
1740095390.3542,6968.205,4305.128,4186.154,4318.974,4326.154
1740095390.362,1745.641,4234.359,4169.744,4228.718,4255.385
1740095390.3698,3339.487,4248.718,4173.333,4248.205,4276.41
1740095390.3775,7499.487,4289.744,4185.128,4293.333,4303.59
1740095390.3853,3050.256,4220.513,4156.41,4198.974,4217.436
1740095390.3931,1743.59,4186.154,4132.821,4150.769,4183.077
1740095390.4009,7019.487,4250.256,4133.333,4237.949,4253.333
1740095390.4087,4871.795,4228.718,4148.718,4233.333,4233.846
1740095390.4166,1072.821,4174.359,4160.513,4164.103,4174.872
1740095390.4246,5803.077,4226.154,4206.667,4203.077,4216.41
1740095390.4326,6539.487,4268.205,4214.359,4240.513,4258.462
1740095390.4406,1368.205,4238.974,4172.308,4206.667,4235.897
1740095390.4484,3963.077,4254.359,4125.641,4237.949,4250.769
1740095390.4561,7109.744,4285.128,4116.923,4283.59,4277.436
1740095390.4639,2256.41,4276.923,4137.436,4268.205,4271.282
1740095390.4717,2547.692,4305.128,4181.538,4281.026,4297.949
1740095390.4797,7489.231,4320.513,4175.897,4292.821,4302.564
1740095390.4877,4024.615,4247.692,4150.769,4226.154,4228.205
1740095390.4956,1362.051,4217.949,4180.513,4189.231,4204.103
1740095390.5036,6436.923,4281.026,4208.718,4250.256,4267.692
1740095390.5116,5507.692,4270.769,4180.513,4261.538,4256.923
1740095390.5194,1027.692,4238.974,4143.077,4229.231,4229.231
1740095390.5274,5056.41,4278.462,4131.795,4254.359,4276.923
1740095390.5353,6875.897,4274.359,4112.821,4263.077,4274.872
1740095390.5433,1741.538,4216.41,4123.59,4216.923,4214.872
1740095390.5511,3493.333,4229.744,4145.128,4222.051,4231.795
1740095390.5591,7212.308,4218.462,4157.436,4212.821,4218.974
1740095390.5669,2685.128,4157.436,4152.821,4152.308,4147.692
1740095390.5748,2098.462,4190.769,4187.179,4172.308,4178.974
1740095390.5828,7234.872,4251.282,4209.744,4234.359,4248.718
1740095390.5908,4490.256,4185.641,4161.538,4181.538,4194.359
1740095390.5986,1249.231,4149.744,4105.641,4150.256,4162.564
1740095390.6064,6172.308,4217.436,4131.795,4217.436,4228.205
1740095390.6141,6032.821,4210.769,4148.718,4214.359,4221.538
1740095390.6219,1130.256,4164.615,4150.256,4162.564,4173.333
1740095390.6297,4486.154,4215.897,4199.487,4202.051,4214.872
1740095390.6375,7064.615,4234.872,4221.026,4229.231,4237.949
1740095390.6455,1995.897,4160,4165.641,4176.923,4183.077
1740095390.6532,3021.538,4195.897,4141.026,4215.897,4225.128
1740095390.661,7528.205,4248.205,4130.769,4256.923,4271.795
1740095390.6688,3446.154,4187.179,4106.667,4195.385,4210.769
1740095390.6766,1573.333,4213.846,4163.077,4221.538,4226.154
1740095390.6844,6738.462,4320.513,4220,4318.462,4314.359
1740095390.6921,5035.897,4268.205,4205.128,4257.949,4264.103
1740095390.6999,1056.41,4184.103,4171.282,4177.949,4195.897
1740095390.7077,5602.051,4226.667,4184.103,4231.795,4241.026
1740095390.7155,6642.051,4228.205,4165.641,4227.692,4240
1740095390.7233,1421.538,4163.077,4152.308,4151.795,4178.974
1740095390.7312,3809.231,4183.59,4170.256,4181.026,4197.949
1740095390.7392,7171.282,4178.462,4194.872,4185.128,4187.692
1740095390.7472,2420.513,4107.179,4187.179,4106.667,4115.385
1740095390.7552,2457.436,4155.897,4192.308,4144.615,4156.923
1740095390.7632,7476.923,4251.282,4213.333,4232.821,4249.744
1740095390.7711,4182.564,4209.744,4183.59,4202.564,4220
1740095390.7791,1253.333,4169.231,4128.718,4188.718,4184.103
1740095390.7871,6256.41,4230.256,4129.744,4241.026,4237.949
1740095390.7951,5636.923,4207.179,4150.256,4189.744,4210.769
1740095390.8031,1062.564,4165.128,4162.564,4153.846,4170.256
1740095390.811,4923.077,4234.872,4192.308,4245.128,4240.513
1740095390.8188,7072.821,4262.051,4191.795,4277.436,4270.769
1740095390.8268,1930.256,4203.59,4175.897,4222.564,4220
1740095390.8348,3345.641,4237.436,4178.974,4263.59,4261.026
1740095390.8428,7284.103,4283.077,4187.692,4319.487,4317.436
1740095390.8507,2888.205,4218.462,4150.769,4277.436,4269.744
1740095390.8587,1872.821,4188.205,4141.026,4287.179,4266.667
1740095390.8665,7179.487,4229.744,4145.641,4384.615,4347.179
1740095390.8745,4873.846,4182.051,4153.333,4386.154,4346.667
1740095390.8823,1214.359,4136.923,4174.872,4373.846,4333.333
1740095390.8903,5936.41,4208.205,4201.538,4477.436,4414.872
1740095390.898,6315.897,4219.487,4169.231,4531.282,4455.385
1740095390.906,1255.385,4163.59,4148.718,4508.205,4432.308
1740095390.9138,4164.103,4225.128,4178.462,4564.103,4487.692
1740095390.9218,7130.256,4282.051,4173.333,4589.231,4525.128
1740095390.9296,2170.256,4206.154,4149.231,4486.154,4438.974
1740095390.9373,2705.641,4192.821,4185.128,4447.692,4395.897
1740095390.9451,7491.282,4213.333,4200,4425.128,4376.923
1740095390.9529,3770.256,4156.923,4159.487,4326.154,4296.41
1740095390.9607,1368.205,4170.256,4176.923,4307.179,4285.641
1740095390.9687,6508.718,4258.974,4207.179,4370.769,4350.769
1740095390.9764,5339.487,4232.821,4192.308,4320.513,4309.231
1740095390.9842,1056.41,4193.333,4157.436,4258.974,4250.256
1740095390.992,5273.846,4253.846,4158.974,4309.231,4296.923
1740095390.9998,6802.051,4266.154,4148.718,4310.769,4312.308
1740095391.0076,1600,4220,4145.641,4255.897,4263.077
1740095391.0153,3589.744,4262.564,4156.41,4307.179,4297.436
1740095391.0231,7228.718,4290.769,4171.282,4337.436,4321.538
1740095391.0311,2598.974,4222.051,4170.769,4252.308,4245.641
1740095391.0391,2186.667,4228.718,4199.487,4238.462,4244.103
1740095391.0471,7382.564,4305.641,4226.154,4295.385,4308.718
1740095391.055,4516.923,4263.59,4203.077,4241.538,4256.41
1740095391.063,1210.256,4210.769,4175.385,4192.821,4203.59
1740095391.071,6047.179,4272.821,4167.179,4258.974,4264.103
1740095391.079,5872.821,4276.923,4138.462,4271.795,4260.513
1740095391.087,1103.59,4233.333,4142.051,4237.949,4215.385
1740095391.0949,4611.282,4286.667,4198.462,4276.923,4267.692
1740095391.1029,7173.333,4328.205,4195.897,4297.436,4302.564
1740095391.1109,2106.667,4278.974,4168.205,4246.667,4248.718
1740095391.1189,3072.821,4294.359,4200.513,4269.231,4267.179
1740095391.1269,7290.256,4314.359,4241.538,4291.282,4297.436
1740095391.1346,3163.077,4247.692,4188.718,4232.821,4240
1740095391.1426,1608.205,4241.538,4155.897,4235.897,4226.667
1740095391.1504,6918.974,4292.821,4159.487,4280.513,4265.128
1740095391.1584,5146.667,4246.667,4152.821,4229.231,4217.949
1740095391.1662,1195.897,4206.667,4153.846,4191.795,4187.692
1740095391.1741,5647.179,4274.359,4204.615,4256.41,4254.359
1740095391.1819,6502.564,4322.051,4224.615,4304.615,4292.308
1740095391.1899,1364.103,4312.308,4202.564,4303.59,4290.256
1740095391.1979,3897.436,4324.103,4207.179,4317.436,4316.41
1740095391.2059,7238.974,4325.641,4225.128,4324.615,4314.872
1740095391.2136,2422.564,4276.923,4185.128,4284.615,4260
1740095391.2216,2484.103,4265.641,4136.923,4265.128,4251.282
1740095391.2294,7419.487,4276.41,4132.308,4274.359,4261.026
1740095391.2374,4073.846,4237.436,4136.41,4244.615,4215.897
1740095391.2454,1308.718,4210.769,4151.795,4215.897,4183.077
1740095391.2533,6354.872,4257.949,4186.667,4255.897,4226.154
1740095391.2611,5573.333,4258.974,4205.641,4253.846,4229.231
1740095391.2691,1060.513,4231.795,4188.205,4224.615,4195.897
1740095391.2771,5003.077,4251.795,4205.128,4238.462,4201.538
1740095391.2849,6912.821,4236.41,4194.359,4220,4188.718
1740095391.2926,1764.103,4175.897,4161.538,4161.538,4137.436
1740095391.3004,3390.769,4212.308,4146.667,4192.821,4162.564
1740095391.3084,7197.949,4277.436,4164.615,4241.538,4212.308
1740095391.3162,2730.256,4227.179,4162.051,4194.872,4169.231
1740095391.3242,2022.564,4172.308,4173.846,4161.538,4122.564
1740095391.3319,7306.667,4231.282,4211.282,4212.308,4172.308
1740095391.3397,4693.333,4273.333,4205.641,4240,4207.179
1740095391.3477,1148.718,4244.615,4148.718,4218.974,4177.949
1740095391.3557,5948.718,4266.154,4131.795,4226.154,4196.923
1740095391.3637,6098.462,4286.667,4153.333,4229.231,4222.051
1740095391.3714,1150.769,4267.692,4172.821,4232.821,4208.205
1740095391.3792,4375.385,4298.462,4206.667,4275.385,4232.308
1740095391.387,7212.308,4310.769,4220.513,4273.333,4246.154
1740095391.3948,2166.154,4221.538,4204.615,4191.282,4165.641
1740095391.4026,2853.333,4205.128,4198.974,4182.564,4142.051
1740095391.4105,7388.718,4228.205,4204.103,4187.692,4151.282
1740095391.4185,3466.667,4145.641,4169.744,4100.513,4074.359
1740095391.4265,1448.205,4115.385,4168.718,4087.692,4054.872
1740095391.4345,6756.923,4198.974,4183.077,4187.692,4140.513
1740095391.4425,5351.795,4191.282,4189.744,4180,4136.923
1740095391.4504,1040,4157.436,4196.923,4117.436,4103.59
1740095391.4584,5368.205,4226.154,4226.154,4160.513,4160
1740095391.4662,6822.564,4210.769,4214.872,4167.179,4146.154
1740095391.4742,1540.513,4127.692,4196.41,4117.436,4077.949
1740095391.482,3505.641,4220,4223.077,4198.462,4158.462
1740095391.4899,7204.103,4329.231,4232.821,4291.282,4250.769
1740095391.4977,2615.385,4245.641,4158.462,4233.333,4187.179
1740095391.5057,2160,4247.179,4131.795,4250.769,4205.641
1740095391.5135,7378.462,4421.026,4217.436,4402.564,4370.769
1740095391.5215,4553.846,4467.692,4233.846,4437.949,4414.359
1740095391.5293,1142.564,4392.821,4174.359,4381.538,4352.821
1740095391.537,5973.333,4411.795,4188.205,4415.385,4380.513
1740095391.5448,5938.462,4427.179,4241.538,4427.179,4392.821
1740095391.5526,1122.051,4378.462,4208.718,4381.538,4345.641
1740095391.5604,4531.282,4368.718,4189.231,4378.974,4341.026
1740095391.5683,7197.949,4369.231,4205.641,4373.333,4339.487
1740095391.576,2118.974,4341.538,4219.487,4333.846,4308.718
1740095391.5838,2949.744,4405.128,4235.385,4386.667,4371.282
1740095391.5916,7308.718,4486.667,4250.769,4467.692,4448.205
1740095391.5996,3321.026,4438.462,4221.538,4439.487,4411.282
1740095391.6076,1614.359,4392.821,4232.821,4398.974,4380
1740095391.6155,6974.359,4411.282,4256.923,4395.897,4388.718
1740095391.6235,5333.333,4329.744,4224.615,4326.154,4306.154
1740095391.6315,1097.436,4209.744,4208.718,4235.897,4201.026
1740095391.6395,5392.821,4205.641,4244.615,4210.256,4183.077
1740095391.6473,6521.026,4195.385,4240,4176.923,4160
1740095391.655,1405.128,4150.769,4221.538,4143.59,4130.256
1740095391.663,3757.949,4167.179,4241.026,4154.872,4142.051
1740095391.671,7296.41,4181.538,4233.333,4158.462,4142.051
1740095391.6788,2652.308,4169.231,4215.385,4155.385,4140.513
1740095391.6866,2492.308,4235.385,4216.41,4230.256,4217.949
1740095391.6943,7302.564,4289.231,4222.051,4288.205,4271.282
1740095391.7021,4012.308,4264.103,4194.872,4271.282,4247.692
1740095391.7101,1218.462,4291.282,4182.051,4301.538,4277.436
1740095391.7179,6344.615,4385.128,4177.436,4394.359,4363.59
1740095391.7259,5755.897,4369.231,4175.385,4378.462,4351.795
1740095391.7338,1083.077,4311.282,4181.538,4321.026,4307.179
1740095391.7418,4906.667,4361.538,4211.795,4378.974,4355.897
1740095391.7498,7066.667,4386.154,4190.769,4409.231,4374.872
1740095391.7578,1833.846,4292.308,4155.897,4304.615,4286.154
1740095391.7656,3134.359,4241.538,4170.256,4254.359,4247.179
1740095391.7735,7183.59,4272.308,4197.949,4298.974,4274.872
1740095391.7813,2935.385,4248.205,4191.282,4263.077,4243.077
1740095391.7893,1907.692,4229.744,4214.359,4218.974,4221.026
1740095391.7971,7245.128,4273.846,4255.385,4269.231,4262.051
1740095391.8051,4947.692,4266.154,4236.923,4279.487,4261.026
1740095391.8128,1062.564,4247.692,4219.487,4256.41,4253.333
1740095391.8208,5669.744,4314.359,4234.359,4311.282,4322.051
1740095391.8286,6229.744,4321.538,4237.949,4320.513,4325.641
1740095391.8366,1208.205,4272.308,4200.513,4283.077,4283.077
1740095391.8444,4123.077,4289.744,4184.615,4306.154,4304.103
1740095391.8521,7290.256,4288.205,4169.231,4303.077,4296.923
1740095391.8599,2395.897,4234.872,4169.744,4244.615,4241.538
1740095391.8677,2689.231,4266.667,4187.179,4278.974,4272.308
1740095391.8757,7255.385,4290.769,4185.641,4315.385,4292.308
1740095391.8837,3620.513,4227.179,4171.282,4256.41,4233.846
1740095391.8916,1462.564,4240.513,4217.949,4267.179,4258.462
1740095391.8994,6754.872,4302.564,4241.538,4327.692,4310.769
1740095391.9072,5563.077,4251.282,4212.308,4272.821,4249.231
1740095391.915,1156.923,4211.795,4208.718,4224.615,4222.564
1740095391.923,5222.564,4282.051,4227.692,4295.385,4290.769
1740095391.9307,6652.308,4284.103,4202.564,4300,4277.436
1740095391.9385,1530.256,4234.872,4195.385,4236.923,4232.308
1740095391.9463,3614.359,4283.59,4241.026,4268.205,4287.692
1740095391.9541,7349.744,4317.949,4240,4304.615,4318.462
1740095391.9621,2781.538,4245.128,4217.436,4253.333,4257.436
1740095391.97,2291.282,4251.282,4234.359,4269.744,4269.231
1740095391.9778,7331.282,4301.026,4247.179,4314.359,4303.59
1740095391.9858,4387.692,4249.231,4209.744,4254.359,4256.41
1740095391.9938,1132.308,4199.487,4217.949,4198.974,4227.179
1740095392.0016,6104.615,4228.205,4244.615,4237.436,4254.872
1740095392.0093,6024.615,4206.667,4235.385,4218.974,4221.026
1740095392.0171,1179.487,4145.641,4204.103,4157.949,4169.231
1740095392.0251,4601.026,4163.077,4220,4184.103,4201.026
1740095392.0329,7154.872,4192.821,4224.615,4222.051,4229.231
1740095392.0409,2032.821,4170.256,4195.385,4196.923,4208.205
1740095392.0486,2927.179,4189.744,4193.333,4206.154,4228.718
1740095392.0566,7218.462,4235.385,4237.436,4250.256,4268.718
1740095392.0644,3208.205,4194.359,4213.846,4218.462,4228.205
1740095392.0724,1675.897,4152.821,4147.692,4173.846,4193.333
1740095392.0802,7087.179,4204.615,4178.974,4209.231,4244.103
1740095392.0881,5331.282,4250.256,4225.128,4250.256,4278.974
1740095392.0961,1081.026,4221.026,4189.231,4233.846,4252.308
1740095392.1041,5349.744,4214.872,4156.923,4237.436,4263.59
1740095392.1119,6395.897,4221.538,4176.41,4244.103,4283.077
1740095392.1199,1370.256,4220,4204.103,4241.538,4277.949
1740095392.1276,3868.718,4247.179,4248.205,4269.744,4291.282
1740095392.1356,7386.667,4278.462,4245.641,4287.692,4314.359
1740095392.1434,2654.359,4268.718,4218.462,4267.692,4311.795
1740095392.1514,2461.538,4305.128,4236.923,4318.974,4360.513
1740095392.1592,7249.231,4371.795,4287.179,4385.641,4420
1740095392.1669,3983.59,4341.538,4252.821,4349.231,4384.615
1740095392.1749,1241.026,4284.615,4209.231,4311.795,4337.949
1740095392.1829,6412.308,4302.051,4219.487,4335.897,4352.821
1740095392.1909,5844.103,4276.923,4226.154,4291.795,4316.41
1740095392.1989,1136.41,4204.103,4200,4202.564,4243.59
1740095392.2069,4861.538,4217.949,4190.769,4216.923,4261.538
1740095392.2146,6972.308,4221.026,4175.385,4239.487,4271.282
1740095392.2224,1784.615,4165.128,4161.538,4198.462,4223.077
1740095392.2302,3193.846,4205.128,4195.897,4233.846,4257.949
1740095392.238,7382.564,4270.256,4207.179,4284.615,4313.333
1740095392.2458,3113.846,4223.59,4169.231,4230.256,4266.667
1740095392.2535,1928.205,4229.744,4164.615,4236.41,4274.872
1740095392.2615,7195.897,4269.744,4191.795,4282.051,4317.436
1740095392.2693,4884.103,4203.077,4167.692,4221.026,4256.41
1740095392.2773,1019.487,4171.795,4155.385,4188.718,4231.282
1740095392.2853,5653.333,4241.026,4154.359,4262.051,4303.077
1740095392.293,6235.897,4213.846,4147.692,4237.949,4272.308
1740095392.3008,1269.744,4155.385,4151.795,4180,4213.846
1740095392.3088,4281.026,4227.692,4180.513,4254.359,4288.718
1740095392.3168,7415.385,4258.974,4152.821,4285.641,4325.128
1740095392.3248,2414.359,4226.667,4149.231,4249.744,4293.333
1740095392.3325,2666.667,4343.59,4205.128,4363.077,4401.538
1740095392.3405,7204.103,4474.359,4203.077,4493.333,4529.231
1740095392.3483,3581.538,4437.436,4137.949,4460,4497.949
1740095392.3563,1456.41,4424.103,4147.179,4446.667,4479.487
1740095392.3641,6834.872,4486.154,4206.154,4508.718,4530.256
1740095392.372,5688.205,4432.821,4195.897,4468.718,4486.667
1740095392.3798,1072.821,4348.205,4165.128,4389.744,4416.923
1740095392.3878,5005.128,4409.744,4189.231,4429.231,4464.615
1740095392.3956,6672.821,4439.487,4224.103,4451.795,4476.41
1740095392.4036,1567.179,4364.615,4202.564,4390.769,4408.718
1740095392.4113,3456.41,4343.077,4188.718,4358.462,4396.923
1740095392.4193,7468.718,4371.282,4189.744,4386.154,4417.436
1740095392.4273,3013.333,4321.538,4188.718,4368.205,4364.615
1740095392.4353,2063.59,4307.179,4189.744,4366.667,4356.41
1740095392.4433,7183.59,4366.154,4188.205,4408.718,4417.436
1740095392.4512,4631.795,4339.487,4142.564,4370.769,4388.205
1740095392.459,1042.051,4305.128,4145.641,4346.667,4350.256
1740095392.4668,5895.385,4362.051,4155.385,4410.256,4414.872
1740095392.4748,6315.897,4357.949,4101.026,4392.308,4415.897
1740095392.4826,1288.205,4288.718,4073.333,4320.513,4335.385
1740095392.4903,4270.769,4300.513,4118.462,4339.487,4331.795
1740095392.4981,7177.436,4294.872,4103.59,4329.231,4325.641
1740095392.5061,2157.949,4218.462,4067.692,4248.205,4253.333
1740095392.5139,2668.718,4221.538,4115.385,4248.718,4246.667
1740095392.5217,7292.308,4272.821,4140,4293.846,4293.846
1740095392.5294,3626.667,4241.026,4114.359,4274.872,4276.41
1740095392.5372,1608.205,4260.513,4135.385,4305.641,4305.641
1740095392.545,6896.41,4373.333,4177.436,4410.256,4414.359
1740095392.5528,5507.692,4386.154,4144.103,4426.667,4426.667
1740095392.5608,1042.051,4293.846,4132.821,4340,4335.385
1740095392.5685,5122.051,4286.154,4158.462,4325.128,4321.538
1740095392.5765,6598.974,4289.744,4147.692,4328.205,4322.564
1740095392.5845,1491.282,4215.897,4107.179,4250.769,4250.256
1740095392.5923,3641.026,4172.821,4134.872,4201.538,4212.308
1740095392.6003,7542.564,4143.59,4151.795,4181.538,4187.692
1740095392.608,2906.667,4066.154,4132.821,4106.154,4107.692
1740095392.6158,2110.769,4076.923,4153.333,4102.051,4114.359
1740095392.6236,7074.872,4143.077,4190.769,4167.179,4174.872
1740095392.6314,4303.59,4100,4158.462,4137.949,4127.692
1740095392.6394,1107.692,4105.641,4138.462,4140,4135.385
1740095392.6473,6180.513,4223.077,4180.513,4244.103,4255.385
1740095392.6553,6215.385,4225.641,4185.128,4244.103,4262.564
1740095392.6631,1230.769,4164.615,4162.051,4186.667,4208.718
1740095392.6711,4473.846,4228.718,4157.436,4253.846,4276.923
1740095392.6789,7021.538,4225.641,4138.974,4262.051,4276.41
1740095392.6868,1987.692,4110.256,4121.026,4154.872,4164.103
1740095392.6948,2957.949,4112.308,4168.718,4144.103,4156.41
1740095392.7028,7372.308,4152.821,4187.692,4178.462,4189.231
1740095392.7108,3405.128,4085.128,4168.718,4116.923,4127.692
1740095392.7188,1776.41,4086.667,4171.282,4107.179,4126.667
1740095392.7267,6984.615,4169.231,4197.949,4178.462,4205.128
1740095392.7347,5074.872,4164.103,4165.641,4192.308,4208.205
1740095392.7427,957.949,4140,4130.769,4185.641,4190.256
1740095392.7507,5466.667,4212.821,4152.308,4257.949,4261.026
1740095392.7587,6601.026,4288.718,4204.615,4335.897,4336.41
1740095392.7666,1429.744,4330.769,4202.051,4380.513,4377.949
1740095392.7746,3872.821,4408.205,4196.41,4451.795,4449.744
1740095392.7826,7476.923,4446.154,4232.308,4486.667,4483.59
1740095392.7906,2625.641,4395.897,4256.923,4438.462,4437.436
1740095392.7986,2164.103,4370.256,4269.231,4404.103,4412.821
1740095392.8064,7099.487,4370.769,4286.667,4399.487,4404.103
1740095392.8141,4129.231,4292.308,4276.923,4327.692,4324.103
1740095392.8219,1208.205,4235.897,4235.385,4266.667,4271.282
1740095392.8297,6367.179,4244.615,4220.513,4272.821,4273.333
1740095392.8375,6069.744,4242.564,4213.846,4271.282,4264.103
1740095392.8453,1124.103,4251.795,4210.256,4271.282,4280
1740095392.853,4494.359,4301.026,4205.128,4324.103,4341.538
1740095392.8608,6861.538,4298.974,4207.179,4332.821,4340
1740095392.8688,1862.564,4259.487,4159.487,4288.205,4291.795
1740095392.8766,3158.974,4289.231,4133.846,4323.59,4321.026
1740095392.8844,7632.821,4357.436,4170.256,4405.641,4395.385
1740095392.8923,3472.821,4339.487,4180,4375.897,4371.795
1740095392.9003,1704.615,4286.667,4125.641,4321.026,4317.949
1740095392.9081,6841.026,4301.538,4116.923,4344.103,4342.051
1740095392.9159,4955.897,4293.846,4133.846,4326.667,4329.744
1740095392.9237,982.564,4280,4139.487,4311.795,4298.462
1740095392.9314,5567.179,4338.462,4142.564,4390.769,4358.974
1740095392.9392,6611.282,4330.256,4123.077,4395.897,4370.256
1740095392.947,1440,4265.128,4125.641,4333.333,4312.308
1740095392.955,3897.436,4331.282,4164.615,4379.487,4361.026
1740095392.9628,7222.564,4360.513,4151.795,4385.128,4378.974
1740095392.9707,2395.897,4251.282,4117.436,4288.205,4280
1740095392.9785,2397.949,4219.487,4151.282,4258.974,4249.744
1740095392.9865,7253.333,4247.179,4144.103,4271.795,4268.718
1740095392.9945,3995.897,4194.359,4117.949,4238.462,4217.436
1740095393.0025,1483.077,4227.692,4149.744,4285.128,4248.718
1740095393.0102,6557.949,4327.179,4175.897,4360,4348.205
1740095393.0182,5597.949,4292.821,4130.769,4325.641,4327.692
1740095393.0262,1023.59,4268.718,4144.103,4327.179,4300
1740095393.0342,4962.051,4363.077,4186.154,4411.795,4376.41
1740095393.0422,6841.026,4340,4170.256,4374.872,4357.949
1740095393.0501,1675.897,4214.359,4145.641,4263.59,4241.538
1740095393.0581,3394.872,4203.59,4163.59,4252.821,4223.077
1740095393.0661,7427.692,4218.462,4160.513,4238.974,4227.692
1740095393.0739,2984.615,4173.333,4141.538,4182.051,4181.538
1740095393.0817,1956.923,4185.128,4157.949,4216.923,4198.974
1740095393.0894,6970.256,4252.821,4190.256,4292.308,4272.821
1740095393.0974,4453.333,4261.538,4198.974,4289.231,4283.59
1740095393.1052,1093.333,4279.487,4174.872,4307.179,4296.923
1740095393.113,6075.897,4307.692,4171.795,4331.282,4309.231
1740095393.1208,6340.513,4224.615,4154.872,4234.872,4213.846
1740095393.1285,1273.846,4134.872,4140.513,4148.718,4134.872
1740095393.1363,4250.256,4209.231,4148.205,4232.308,4215.385
1740095393.1441,6978.462,4244.103,4134.359,4265.641,4237.949
1740095393.1519,2045.128,4154.872,4103.59,4179.487,4152.821
1740095393.1599,2845.128,4177.949,4153.333,4200.513,4187.692
1740095393.1676,7468.718,4257.949,4166.154,4276.41,4262.564
1740095393.1754,3721.026,4213.333,4124.103,4241.026,4213.333
1740095393.1832,1737.436,4210.769,4160,4243.077,4214.872
1740095393.191,6697.436,4278.462,4211.282,4305.641,4278.462
1740095393.1988,5005.128,4215.385,4155.385,4240,4216.923
1740095393.2067,986.667,4155.897,4143.077,4168.205,4167.179
1740095393.2147,5474.872,4262.051,4203.077,4263.59,4257.949
1740095393.2225,6699.487,4338.462,4204.615,4350.769,4310.769
1740095393.2303,1509.744,4276.41,4174.872,4298.462,4256.923
1740095393.2381,3807.179,4280,4187.692,4293.846,4274.872
1740095393.2458,7329.231,4334.872,4206.154,4336.41,4316.41
1740095393.2538,2564.103,4297.949,4172.821,4298.462,4272.821
1740095393.2618,2237.949,4271.795,4165.641,4284.103,4267.692
1740095393.2698,7185.641,4301.538,4171.795,4317.436,4300.513
1740095393.2778,4155.897,4244.615,4155.385,4251.282,4230.256
1740095393.2857,1304.615,4197.436,4128.205,4212.821,4194.872
1740095393.2935,6381.538,4247.179,4129.744,4273.846,4250.769
1740095393.3015,5858.462,4221.538,4120.513,4222.564,4201.026
1740095393.3095,1056.41,4140.513,4140.513,4125.128,4113.846
1740095393.3175,4697.436,4219.487,4186.154,4222.564,4205.641
1740095393.3252,6970.256,4316.41,4205.128,4305.128,4289.744
1740095393.3332,1829.744,4267.692,4181.538,4229.231,4233.846
1740095393.341,3183.59,4243.077,4191.795,4221.026,4223.077
1740095393.349,7561.026,4286.667,4214.359,4282.051,4266.154
1740095393.3568,3292.308,4274.359,4197.436,4266.154,4248.205
1740095393.3647,1667.692,4252.821,4183.077,4253.333,4230.769
1740095393.3725,6808.205,4273.846,4193.333,4272.821,4243.59
1740095393.3805,4820.513,4231.795,4173.333,4222.051,4194.872
1740095393.3883,1007.179,4211.282,4143.59,4217.436,4185.641
1740095393.3963,5706.667,4277.949,4164.103,4284.615,4261.538
1740095393.404,6543.59,4279.487,4156.41,4262.564,4260.513
1740095393.412,1398.974,4232.308,4156.41,4221.026,4208.718
1740095393.42,3969.231,4313.333,4207.179,4320.513,4282.051
1740095393.4278,7122.051,4392.821,4234.872,4389.744,4352.308
1740095393.4356,2231.795,4340,4201.026,4325.128,4305.641
1740095393.4436,2451.282,4301.026,4212.308,4294.872,4275.897
1740095393.4513,7495.385,4314.359,4215.385,4320.513,4287.179
1740095393.4593,4182.564,4277.949,4192.308,4280.513,4245.128
1740095393.4671,1417.436,4259.487,4182.564,4253.846,4226.667
1740095393.4749,6443.077,4295.385,4201.538,4290.769,4263.077
1740095393.4827,5645.128,4258.974,4189.744,4259.487,4233.333
1740095393.4904,1005.128,4198.974,4160,4212.308,4194.872
1740095393.4982,4845.128,4244.615,4156.41,4261.026,4243.077
1740095393.5062,6939.487,4284.615,4150.769,4278.462,4265.641
1740095393.5142,1796.923,4234.872,4141.026,4219.487,4217.436
1740095393.522,3337.436,4253.333,4161.538,4261.538,4245.641
1740095393.5297,7456.41,4296.41,4172.308,4322.564,4283.077
1740095393.5375,3035.897,4230.256,4145.641,4260,4220.513
1740095393.5453,1807.179,4192.821,4165.128,4223.077,4191.795
1740095393.5531,7025.641,4246.154,4178.974,4264.103,4235.897
1740095393.5609,4804.103,4217.436,4154.359,4222.051,4196.923
1740095393.5688,1175.385,4179.487,4164.103,4189.231,4152.821
1740095393.5768,5922.051,4230.769,4210.256,4251.282,4197.436
1740095393.5848,6377.436,4223.59,4180,4246.667,4199.487
1740095393.5926,1284.103,4168.205,4164.103,4178.974,4147.692
1740095393.6006,4137.436,4213.333,4194.359,4210.769,4182.051
1740095393.6085,7058.462,4246.154,4205.128,4246.667,4213.846
1740095393.6165,2145.641,4205.128,4179.487,4202.051,4175.897
1740095393.6245,2777.436,4226.667,4191.282,4213.846,4191.795
1740095393.6325,7542.564,4227.692,4202.564,4229.744,4199.487
1740095393.6403,3784.615,4158.462,4183.59,4174.872,4142.051
1740095393.6482,1417.436,4210.769,4196.41,4217.436,4184.103
1740095393.656,6529.231,4301.538,4226.154,4296.923,4272.308
1740095393.664,5286.154,4212.308,4202.564,4208.718,4204.615
1740095393.6718,970.256,4163.59,4154.359,4168.205,4163.59
1740095393.6798,5204.103,4271.795,4172.821,4282.051,4253.333
1740095393.6875,6836.923,4285.128,4193.333,4297.949,4256.41
1740095393.6955,1669.744,4203.077,4167.179,4223.59,4180.513
1740095393.7033,3565.128,4236.923,4154.359,4255.385,4214.872
1740095393.7113,7222.564,4270.256,4200.513,4277.949,4254.359
1740095393.7191,2646.154,4233.846,4215.385,4251.282,4230.256
1740095393.727,2135.385,4286.154,4193.846,4309.231,4276.923
1740095393.7348,7259.487,4366.667,4160.513,4373.333,4342.051
1740095393.7428,4467.692,4297.436,4148.205,4311.282,4279.487
1740095393.7506,1232.821,4235.897,4165.128,4268.205,4230.256
1740095393.7584,6174.359,4291.795,4191.282,4312.821,4273.846
1740095393.7661,6028.718,4272.308,4137.436,4280.513,4246.154
1740095393.7739,1087.179,4198.974,4095.897,4206.154,4187.179
1740095393.7817,4441.026,4209.744,4158.462,4224.103,4202.564
1740095393.7895,7097.436,4181.538,4200.513,4204.615,4162.564
1740095393.7973,2016.41,4089.231,4166.154,4105.641,4067.179
1740095393.805,2937.436,4121.026,4163.59,4133.333,4101.538
1740095393.8128,7507.692,4192.821,4178.462,4215.385,4172.821
1740095393.8208,3509.744,4166.667,4152.308,4182.051,4149.744
1740095393.8288,1509.744,4156.923,4168.718,4166.154,4150.256
1740095393.8368,6701.538,4228.718,4198.974,4252.308,4219.487
1740095393.8447,5156.923,4240.513,4184.615,4262.051,4218.462
1740095393.8527,1003.077,4215.385,4178.462,4220,4193.333
1740095393.8607,5454.359,4237.436,4230.256,4242.564,4222.564
1740095393.8687,6806.154,4216.923,4223.59,4229.231,4208.718
1740095393.8767,1542.564,4140,4184.615,4156.923,4143.077
1740095393.8846,3638.974,4140,4193.846,4153.846,4150.256
1740095393.8926,7200,4160.513,4225.128,4164.615,4171.795
1740095393.9006,2562.051,4098.462,4177.436,4125.128,4121.026
1740095393.9086,2285.128,4085.128,4144.615,4132.308,4116.41
1740095393.9166,7398.974,4157.949,4196.923,4185.128,4187.692
1740095393.9245,4393.846,4158.974,4201.538,4181.538,4192.821
1740095393.9323,1226.667,4153.333,4144.615,4195.897,4193.846
1740095393.9401,6162.051,4270.256,4172.308,4296.41,4304.103
1740095393.9481,5860.513,4326.154,4232.821,4330.769,4350.256
1740095393.9559,1107.692,4267.692,4195.897,4295.385,4296.923
1740095393.9638,4668.718,4281.538,4173.846,4317.436,4312.308
1740095393.9718,7117.949,4328.718,4204.615,4346.667,4352.821
1740095393.9798,2010.256,4272.821,4190.256,4291.282,4297.949
1740095393.9876,3058.462,4269.231,4160,4283.59,4294.872
1740095393.9956,7341.538,4313.846,4190.256,4313.846,4336.41
1740095394.0033,3183.59,4263.59,4177.949,4274.872,4286.154
1740095394.0113,1540.513,4230.256,4152.821,4254.359,4248.205
1740095394.0191,6929.231,4276.41,4173.333,4285.128,4284.103
1740095394.0269,5263.59,4249.744,4201.538,4256.41,4264.615
1740095394.0347,1120,4196.923,4180.513,4217.436,4221.538
1740095394.0425,5524.103,4222.564,4184.103,4243.59,4243.077
1740095394.0502,6627.692,4227.692,4191.795,4258.462,4249.744
1740095394.058,1437.949,4227.692,4174.872,4273.333,4256.923
1740095394.0658,3735.385,4285.128,4151.795,4331.282,4320.513
1740095394.0738,7191.795,4274.872,4135.385,4310.256,4311.795
1740095394.0818,2469.744,4203.59,4130.769,4234.359,4236.41
1740095394.0895,2387.692,4253.333,4166.667,4288.205,4280
1740095394.0973,7487.179,4331.282,4194.359,4364.103,4355.897
1740095394.1051,4297.436,4280.513,4164.103,4302.564,4303.59
1740095394.1129,1200,4223.077,4166.154,4239.487,4235.385
1740095394.1209,6229.744,4262.564,4205.641,4283.077,4266.667
1740095394.1288,5858.462,4259.487,4212.821,4292.308,4272.308
1740095394.1366,1109.744,4238.974,4197.436,4275.897,4263.077
1740095394.1444,4701.538,4280.513,4228.718,4303.59,4301.538
1740095394.1522,7031.795,4274.872,4220.513,4294.872,4292.821
1740095394.16,1958.974,4222.051,4184.615,4256.923,4249.744
1740095394.1677,3156.923,4250.256,4175.385,4285.641,4279.487
1740095394.1755,7226.667,4275.385,4181.026,4304.615,4294.359
1740095394.1835,3005.128,4217.949,4157.436,4260,4235.385
1740095394.1915,1805.128,4205.128,4155.385,4255.385,4231.795
1740095394.1995,7191.795,4269.231,4166.154,4305.128,4301.538
1740095394.2074,5101.538,4290.256,4158.462,4311.282,4320
1740095394.2154,1132.308,4260.513,4156.41,4294.359,4288.718
1740095394.2232,5634.872,4258.974,4166.667,4312.821,4289.744
1740095394.2312,6317.949,4258.462,4157.949,4296.41,4284.615
1740095394.239,1280,4229.744,4160.513,4245.641,4243.59
1740095394.2469,4065.641,4202.051,4196.41,4227.179,4208.205
1740095394.2547,7337.436,4184.615,4201.538,4211.795,4189.231
1740095394.2627,2463.59,4150.769,4186.667,4163.077,4157.949
1740095394.2705,2629.744,4183.59,4191.795,4197.436,4193.846
1740095394.2785,7419.487,4229.744,4215.897,4258.974,4237.436
1740095394.2862,3878.974,4181.026,4176.923,4213.333,4187.179
1740095394.2942,1251.282,4162.564,4147.692,4185.128,4174.359
1740095394.302,6471.795,4237.436,4160,4254.872,4248.205
1740095394.31,5714.872,4225.641,4164.615,4252.821,4241.026
1740095394.3178,1072.821,4181.026,4149.744,4223.59,4210.256
1740095394.3257,4957.949,4254.359,4164.103,4296.923,4277.436
1740095394.3335,7009.231,4279.487,4145.128,4316.41,4287.692
1740095394.3415,1764.103,4201.026,4139.487,4232.821,4211.795
1740095394.3493,3142.564,4203.59,4200,4230.256,4216.923
1740095394.3573,7214.359,4213.846,4208.205,4239.487,4222.051
1740095394.365,2966.154,4129.744,4156.923,4161.026,4143.59
1740095394.373,1922.051,4148.205,4199.487,4172.308,4167.179
1740095394.3808,7234.872,4241.538,4266.154,4250.769,4253.846
1740095394.3886,4970.256,4222.051,4231.282,4243.077,4230.769
1740095394.3964,1099.487,4196.923,4215.385,4232.821,4203.077
1740095394.4043,5675.897,4268.205,4270.256,4289.744,4269.744
1740095394.4121,6227.692,4250.769,4304.103,4262.564,4252.308
1740095394.4201,1222.564,4158.974,4267.179,4187.179,4165.128
1740095394.4281,4139.487,4124.615,4241.538,4162.051,4132.821
1740095394.4361,7298.462,4089.231,4231.282,4116.923,4097.949
1740095394.444,2410.256,4044.615,4258.462,4061.538,4053.333
1740095394.4518,2703.59,4094.872,4305.641,4107.179,4098.974
1740095394.4596,7259.487,4134.359,4336.923,4150.769,4134.872
1740095394.4674,3593.846,4061.026,4314.872,4085.641,4069.231
1740095394.4752,1378.462,4045.641,4309.231,4077.436,4062.564
1740095394.4829,6742.564,4119.487,4328.205,4157.436,4135.897
1740095394.4907,5636.923,4095.385,4352.821,4126.667,4107.692
1740095394.4987,1029.744,4035.897,4393.846,4053.846,4045.641
1740095394.5065,5040,4077.949,4454.359,4093.333,4078.462
1740095394.5145,6802.051,4068.205,4486.154,4089.744,4065.128
1740095394.5222,1597.949,3961.538,4467.179,3990.256,3974.872
1740095394.5302,3357.949,3912.821,4450.769,3943.59,3929.744
1740095394.538,7392.821,3890.256,4469.744,3917.436,3886.154
1740095394.5458,3017.436,3807.692,4529.744,3824.615,3797.949
1740095394.5536,2088.205,3781.026,4555.385,3781.026,3776.41
1740095394.5615,7140.513,3757.949,4545.128,3743.077,3741.538
1740095394.5693,4541.538,3644.615,4551.795,3628.718,3625.641
1740095394.5773,1042.051,3576.41,4584.615,3572.821,3571.795
1740095394.5851,5901.538,3590.769,4578.462,3578.974,3578.462
1740095394.5931,6192.821,3538.974,4608.205,3506.154,3510.256
1740095394.6008,1226.667,3507.692,4665.641,3484.615,3479.487
1740095394.6088,4389.744,3588.205,4661.538,3583.077,3560
1740095394.6166,7284.103,3596.41,4612.308,3582.051,3565.641
1740095394.6246,2248.205,3536.923,4644.615,3502.051,3501.538
1740095394.6324,2769.231,3578.974,4691.282,3540.513,3534.359
1740095394.6403,7202.051,3617.949,4656.923,3580,3571.795
1740095394.6481,3407.179,3566.154,4596.41,3520,3520.513
1740095394.6561,1536.41,3581.538,4574.872,3540,3529.231
1740095394.6639,6859.487,3609.744,4584.103,3590.256,3557.436
1740095394.6717,5374.359,3528.205,4598.974,3522.564,3482.051
1740095394.6794,1083.077,3474.872,4616.41,3468.718,3431.795
1740095394.6872,5282.051,3504.615,4630.256,3489.744,3458.974
1740095394.695,6502.564,3462.564,4616.41,3440.513,3410.256
1740095394.703,1468.718,3408.205,4561.026,3390.769,3355.897
1740095394.7108,3850.256,3464.103,4544.615,3450.256,3414.359
1740095394.7186,7425.641,3566.667,4507.692,3541.026,3505.641
1740095394.7263,2703.59,3639.487,4408.205,3609.231,3568.205
1740095394.7343,2377.436,3755.897,4325.641,3730.769,3688.718
1740095394.7423,7275.897,3897.436,4277.436,3872.308,3829.231
1740095394.7501,4145.641,3966.667,4170.256,3951.282,3897.436
1740095394.7579,1134.359,4014.872,4112.308,4011.282,3956.41
1740095394.7656,6268.718,4104.615,4128.205,4098.974,4057.436
1740095394.7734,6098.462,4172.821,4111.795,4176.41,4126.667
1740095394.7812,1234.872,4279.487,4048.205,4308.718,4234.872
1740095394.789,4613.333,4492.308,4018.462,4532.308,4453.846
1740095394.797,7068.718,4583.59,4010.769,4613.846,4545.128
1740095394.8049,1956.923,4565.128,3964.103,4594.359,4525.641
1740095394.8129,2929.231,4693.333,3923.59,4738.462,4663.59
1740095394.8209,7366.154,4822.564,3937.436,4877.949,4796.41
1740095394.8289,3407.179,4761.026,3987.179,4816.923,4729.744
1740095394.8369,1723.077,4757.949,3995.385,4820,4731.282
1740095394.8448,7046.154,4834.359,4018.462,4902.564,4813.333
1740095394.8526,5284.103,4775.385,4041.026,4838.462,4747.179
1740095394.8606,998.974,4680.513,4059.487,4727.692,4636.923
1740095394.8686,5314.872,4643.59,4069.744,4692.821,4600.513
1740095394.8766,6500.513,4509.231,4042.564,4578.974,4477.436
1740095394.8843,1429.744,4335.385,3979.487,4406.667,4309.744
1740095394.8923,3887.179,4294.872,3992.821,4344.615,4267.692
1740095394.9001,7460.513,4291.282,4033.846,4333.846,4261.026
1740095394.9081,2646.154,4220.513,4030.769,4278.462,4190.769
1740095394.9159,2285.128,4185.641,4072.821,4245.128,4149.231
1740095394.9238,7109.744,4211.795,4176.923,4248.718,4162.564
1740095394.9318,3965.128,4208.718,4125.128,4238.462,4160.513
1740095394.9398,1204.103,4206.667,3963.077,4251.795,4169.231
1740095394.9476,6477.949,4264.103,3966.154,4312.308,4223.59
1740095394.9556,6065.641,4330.256,4053.333,4366.154,4284.103
1740095394.9633,1167.179,4361.026,3990.769,4396.923,4329.744
1740095394.9713,4646.154,4417.436,3847.179,4457.949,4393.333
1740095394.9791,6888.205,4448.718,3804.103,4492.821,4414.872
1740095394.9871,1792.821,4437.436,3776.923,4488.205,4403.077
1740095394.9949,3093.333,4456.41,3773.333,4506.667,4432.821
1740095395.0026,7509.744,4462.051,3786.667,4514.872,4444.615
1740095395.0104,3380.513,4422.051,3765.128,4486.667,4400.513
1740095395.0182,1835.897,4447.179,3786.154,4506.667,4420.513
1740095395.026,6966.154,4433.333,3871.795,4481.026,4409.744
1740095395.0338,4927.179,4353.333,3883.59,4412.308,4338.974
1740095395.0415,1019.487,4474.359,3898.462,4532.821,4460
1740095395.0495,5643.077,4687.179,3948.718,4734.872,4669.744
1740095395.0575,6498.462,4675.897,3955.385,4738.974,4662.051
1740095395.0655,1351.795,4594.872,3986.667,4677.436,4593.846
1740095395.0735,3993.846,4651.282,4086.667,4718.974,4658.974
1740095395.0812,7323.077,4652.308,4120,4696.923,4653.846
1740095395.089,2402.051,4548.718,4089.744,4605.641,4547.692
1740095395.0968,2379.487,4555.385,4044.103,4637.436,4561.538
1740095395.1046,7337.436,4631.795,4018.462,4712.821,4641.538
1740095395.1126,4049.231,4570.256,4091.282,4640.513,4582.564
1740095395.1205,1183.59,4562.564,4149.744,4628.718,4567.179
1740095395.1285,6510.769,4756.41,4088.205,4817.436,4743.59
1740095395.1365,6153.846,4879.487,3918.974,4949.231,4873.846
1740095395.1445,1091.282,4898.974,3789.231,4988.718,4915.897
1740095395.1523,4484.103,5067.692,3701.538,5151.282,5075.897
1740095395.16,7054.359,5224.615,3589.231,5296.41,5220
1740095395.1678,1965.128,5217.949,3490.256,5309.744,5222.564
1740095395.1758,2941.538,5277.949,3500.513,5386.154,5288.718
1740095395.1836,7575.385,5386.154,3494.359,5476.923,5392.308
1740095395.1916,3657.436,5344.615,3417.949,5429.744,5353.333
1740095395.1993,1641.026,5289.231,3456.41,5406.154,5315.385
1740095395.2073,6722.051,5368.718,3452.821,5502.564,5400.513
1740095395.2151,5105.641,5574.359,3031.795,5701.538,5591.282
1740095395.2231,1037.949,5862.564,2729.744,5991.795,5872.821
1740095395.2309,5376.41,5936.923,3150.769,6074.872,5964.615
1740095395.2388,6457.436,5631.282,3763.077,5773.846,5680.513
1740095395.2468,1444.103,5318.462,3993.846,5447.692,5362.051
1740095395.2548,3887.179,5216.923,4130.769,5314.359,5238.462
1740095395.2626,7081.026,5026.667,4309.231,5119.487,5045.128
1740095395.2706,2252.308,4761.538,4323.077,4864.103,4785.641
1740095395.2785,2410.256,4651.795,4366.667,4738.974,4661.026
1740095395.2865,7376.41,4596.923,4407.179,4679.487,4595.385
1740095395.2945,4010.256,4457.436,4346.154,4539.487,4455.385
1740095395.3023,1249.231,4352.308,4325.641,4413.846,4339.487
1740095395.3101,6488.205,4347.179,4306.154,4404.103,4324.615
1740095395.3178,5883.077,4327.179,4138.462,4393.846,4307.692
1740095395.3256,1017.436,4307.179,3993.846,4371.795,4289.744
1740095395.3334,4654.359,4392.821,3970.769,4457.436,4370.256
1740095395.3412,7019.487,4456.41,3925.128,4520.513,4424.103
1740095395.349,1860.513,4409.231,3825.128,4467.179,4372.821
1740095395.3568,3078.974,4466.154,3753.846,4524.103,4434.359
1740095395.3645,7608.205,4585.641,3811.795,4642.051,4561.026
1740095395.3723,3454.359,4500,3994.872,4552.308,4478.462
1740095395.3801,1540.513,4332.308,4129.231,4376.41,4292.821
1740095395.3879,6681.026,4250.256,4129.231,4279.487,4195.385
1740095395.3959,5015.385,4086.667,4122.564,4118.462,4047.179
1740095395.4036,1017.436,3918.462,4248.718,3946.154,3877.949
1740095395.4114,5513.846,3849.231,4458.974,3843.59,3771.795
1740095395.4192,6666.667,3718.462,4473.333,3709.744,3636.923
1740095395.4272,1532.308,3615.385,4410.769,3644.103,3569.744
1740095395.4352,3811.282,3730.769,4487.692,3758.974,3686.667
1740095395.4431,7089.231,3835.897,4514.872,3819.487,3758.462
1740095395.4511,2373.333,3814.359,4417.436,3792.821,3729.231
1740095395.4591,2457.436,3868.205,4497.949,3859.487,3789.744
1740095395.4671,7520,3957.949,4595.385,3930.769,3871.795
1740095395.4749,4278.974,3949.744,4532.308,3914.359,3852.821
1740095395.4826,1331.282,3961.026,4505.641,3936.41,3839.487
1740095395.4906,6303.59,3989.744,4552.308,3974.359,3862.564
1740095395.4984,5671.795,3940.513,4506.667,3947.692,3857.949
1740095395.5064,1015.385,3977.949,4367.179,4001.538,3901.538
1740095395.5142,4800,4180,4249.744,4176.923,4064.615
1740095395.5221,7031.795,4318.974,4201.538,4300.513,4220.513
1740095395.5299,1901.538,4301.026,4210.256,4316.923,4225.641
1740095395.5379,3273.846,4275.897,4257.949,4316.41,4165.641
1740095395.5457,7423.59,4210.256,4329.744,4242.051,4086.154
1740095395.5537,3072.821,4016.41,4447.692,4032.308,3902.564
1740095395.5616,1723.077,3790.256,4593.846,3804.103,3669.231
1740095395.5696,7033.846,3738.462,4420.513,3751.282,3621.026
1740095395.5774,4980.513,3822.564,4034.872,3824.103,3720
1740095395.5854,1117.949,3853.846,4028.718,3841.026,3755.385
1740095395.5932,5747.692,3798.974,4277.436,3773.846,3696.41
1740095395.6011,6498.462,3751.795,4162.564,3737.436,3649.231
1740095395.6091,1335.385,3802.051,3958.974,3805.641,3704.615
1740095395.6171,3940.513,3917.949,4000,3918.462,3815.897
1740095395.6251,7220.513,3944.103,4033.846,3945.641,3837.436
1740095395.6329,2344.615,3897.436,4045.128,3915.897,3790.256
1740095395.6406,2445.128,3961.538,4112.821,3980.513,3841.026
1740095395.6484,7526.154,4050.256,4073.333,4058.974,3908.718
1740095395.6562,4223.59,4014.872,3982.564,4026.154,3868.205
1740095395.6642,1232.821,4023.077,4025.128,4036.41,3881.026
1740095395.6722,6272.821,4170.769,4049.744,4180,4032.308
1740095395.6801,5770.256,4298.462,3912.821,4304.615,4166.667
1740095395.6881,1064.615,4411.795,3808.718,4427.179,4296.41
1740095395.6959,4775.385,4531.795,3881.026,4558.462,4426.154
1740095395.7037,7052.308,4533.333,3873.333,4530.769,4405.641
1740095395.7115,1954.872,4423.077,3802.051,4400.513,4283.59
1740095395.7192,3212.308,4364.103,3859.487,4389.231,4245.641
1740095395.7272,7243.077,4311.282,3914.359,4372.308,4194.872
1740095395.7352,2968.205,4194.359,3813.333,4237.949,4067.692
1740095395.7432,1774.359,4151.795,3800,4173.333,4019.487
1740095395.7512,7134.359,4239.487,3837.949,4260.513,4088.205
1740095395.7591,5076.923,4320.513,3885.128,4341.538,4163.077
1740095395.7669,1163.077,4349.744,4057.949,4364.615,4208.205
1740095395.7747,5702.564,4396.41,4080.513,4409.231,4252.308
1740095395.7825,6412.308,4433.846,3857.436,4462.564,4283.077
1740095395.7905,1308.718,4444.103,3843.59,4471.282,4292.821
1740095395.7982,3956.923,4444.103,4024.103,4450.256,4285.128
1740095395.8062,7253.333,4415.385,3970.256,4448.718,4269.744
1740095395.8142,2445.128,4422.564,3765.641,4504.103,4304.615
1740095395.8222,2586.667,4532.821,3700.513,4614.872,4421.538
1740095395.8302,7446.154,4600.513,3715.385,4671.795,4489.744
1740095395.8381,3993.846,4656.923,3567.179,4729.744,4544.615
1740095395.8461,1251.282,4798.462,3513.846,4856.923,4675.897
1740095395.8541,6322.051,4820,3753.846,4856.41,4686.154
1740095395.8621,5571.282,4622.051,3932.308,4658.974,4474.359
1740095395.8701,1040,4448.205,3895.897,4502.051,4300.513
1740095395.878,4972.308,4347.692,3921.026,4411.795,4227.179
1740095395.8859,7003.077,4238.974,3901.538,4294.872,4117.949
1740095395.8937,1815.385,4160.513,3812.821,4210.256,4018.462
1740095395.9017,3273.846,4151.795,3869.231,4217.949,4017.949
1740095395.9097,7224.615,4154.359,3970.256,4220,4021.538
1740095395.9176,2896.41,4144.103,3870.256,4180,3991.795
1740095395.9256,1938.462,4207.692,3755.897,4248.205,4065.641
1740095395.9335,7292.308,4334.872,3775.385,4402.051,4205.128
1740095395.9413,5017.436,4418.462,3792.308,4476.41,4267.179
1740095395.9491,1185.641,4483.077,3760.513,4533.333,4329.231
1740095395.9568,5723.077,4579.487,3771.795,4650.256,4452.821
1740095395.9646,6217.436,4560.513,3884.615,4639.487,4450.769
1740095395.9724,1218.462,4455.897,3997.949,4528.718,4353.846
1740095395.9802,4164.103,4429.231,4082.051,4502.564,4328.205
1740095395.988,7423.59,4397.436,4109.744,4460,4281.026
1740095395.996,2473.846,4263.59,4153.333,4306.667,4141.026
1740095396.0039,2576.41,4178.462,4202.564,4221.538,4072.821
1740095396.0117,7333.333,4159.487,4180.513,4213.333,4072.821
1740095396.0195,3833.846,4104.103,4090.256,4168.205,4025.641
1740095396.0273,1181.538,4096.41,4071.795,4160.513,4008.718
1740095396.0351,6469.744,4140,4092.821,4201.538,4044.103
1740095396.043,5842.051,4106.154,4080.513,4161.026,4005.128
1740095396.051,1109.744,4103.077,4031.795,4149.231,4000
1740095396.059,4869.744,4217.949,3970.256,4270.769,4121.026
1740095396.067,7009.231,4260,3881.026,4315.897,4158.462
1740095396.075,1809.231,4214.872,3833.333,4265.641,4102.051
1740095396.0827,3146.667,4281.538,3828.205,4348.718,4179.487
1740095396.0905,7384.615,4399.487,3767.179,4477.436,4311.795
1740095396.0983,3148.718,4407.179,3717.436,4476.923,4320
1740095396.1063,1805.128,4475.385,3724.103,4546.667,4386.154
1740095396.1141,7222.564,4632.821,3680.513,4704.615,4532.821
1740095396.122,5245.128,4671.282,3558.462,4744.103,4573.333
1740095396.1298,1097.436,4682.564,3486.154,4777.949,4606.154
1740095396.1378,5483.077,4846.667,3392.821,4943.59,4754.872
1740095396.1458,6457.436,4956.41,3229.231,5028.205,4836.41
1740095396.1538,1351.795,4963.077,3111.282,5054.872,4872.308
1740095396.1615,3870.769,5105.128,3025.641,5225.641,5034.359
1740095396.1695,7548.718,5299.487,2846.154,5396.923,5194.359
1740095396.1775,2777.436,5366.667,2674.872,5471.282,5269.231
1740095396.1855,2254.359,5595.385,2320,5760,5550.256
1740095396.1933,7329.231,5994.872,2110.256,6167.692,5954.872
1740095396.2012,4371.282,5956.41,2734.872,6074.872,5887.692
1740095396.209,894.359,5454.359,3636.41,5543.077,5378.974
1740095396.2168,5969.231,5050.256,3854.872,5166.667,5003.077
1740095396.2246,6317.949,4742.051,3957.436,4891.795,4734.359
1740095396.2326,1288.205,4203.077,4690.256,4340,4218.974
1740095396.2405,4258.462,3560,5538.462,3651.795,3570.256
1740095396.2485,7037.949,3043.077,5929.231,3050.769,2985.641
1740095396.2565,1963.077,2695.897,5863.59,2601.538,2541.538
1740095396.2643,2553.846,2473.846,5671.282,2384.615,2320.513
1740095396.2721,7398.974,2289.231,5587.179,2302.564,2223.077
1740095396.2798,3757.949,2120.513,5593.333,2166.154,2090.256
1740095396.2876,1423.59,2082.051,5536.923,2083.59,2032.821
1740095396.2954,6756.923,2174.359,5406.154,2160.513,2103.59
1740095396.3032,5702.564,2318.974,5156.41,2303.077,2218.974
1740095396.311,970.256,2525.128,4855.897,2493.846,2405.128
1740095396.3187,4818.462,2781.026,4697.949,2736.923,2652.821
1740095396.3265,6814.359,2885.128,4691.282,2840,2744.103
1740095396.3343,1688.205,2845.128,4572.821,2822.564,2711.282
1740095396.3423,3325.128,2958.974,4426.667,2951.282,2837.949
1740095396.3503,7622.564,3136.923,4432.821,3119.487,3014.359
1740095396.3582,3247.179,3132.308,4449.231,3067.179,2971.795
1740095396.3662,1729.231,3031.282,4472.821,2933.846,2842.564
1740095396.3742,6820.513,2887.179,4610.256,2854.359,2761.026
1740095396.3822,4742.564,2688.718,4726.667,2730.769,2630.769
1740095396.3902,994.872,2617.436,4838.974,2633.846,2535.385
1740095396.3981,5727.179,2684.615,4975.897,2647.692,2555.897
1740095396.4061,6582.564,2711.795,4927.179,2682.051,2587.692
1740095396.4141,1433.846,2734.872,4845.128,2726.667,2626.154
1740095396.4221,3969.231,2835.385,4917.436,2822.564,2728.205
1740095396.4299,7144.615,2894.872,4915.897,2851.282,2759.487
1740095396.4378,2291.282,2877.436,4770.769,2820.513,2716.41
1740095396.4458,2410.256,2803.59,4832.821,2786.667,2683.59
1740095396.4538,7429.744,2731.795,4931.282,2741.026,2654.359
1740095396.4616,4190.769,2731.795,4811.795,2729.744,2642.051
1740095396.4696,1368.205,2824.615,4676.923,2813.333,2713.846
1740095396.4773,6441.026,2917.436,4654.872,2909.744,2801.538
1740095396.4853,5821.538,2930.769,4516.923,2936.41,2823.59
1740095396.4931,1005.128,3005.641,4293.333,3015.897,2903.077
1740095396.5011,4678.974,3236.41,4142.564,3212.821,3096.41
1740095396.5089,7126.154,3376.923,4034.359,3340.513,3215.385
1740095396.5166,1989.744,3353.333,3917.436,3374.872,3249.744
1740095396.5244,3138.462,3495.385,3854.359,3538.974,3416.923
1740095396.5322,7593.846,3730.769,3823.077,3745.128,3613.846
1740095396.54,3460.513,3781.538,3744.103,3821.026,3681.026
1740095396.548,1608.205,3837.949,3705.128,3913.846,3778.974
1740095396.5559,6763.077,4022.564,3740,4076.41,3947.179
1740095396.5639,5091.282,4058.462,3801.538,4109.231,3973.333
1740095396.5717,1107.692,3977.436,3878.974,4060.513,3917.949
1740095396.5795,5600,3949.744,4059.487,4023.59,3889.231
1740095396.5873,6666.667,3875.897,4222.564,3908.718,3792.308
1740095396.5952,1456.41,3705.641,4320.513,3739.487,3631.282
1740095396.603,3762.051,3557.949,4405.641,3633.846,3516.923
1740095396.6108,7138.462,3435.897,4532.308,3520.513,3406.667
1740095396.6186,2412.308,3307.179,4636.41,3367.692,3266.667
1740095396.6264,2391.795,3204.103,4695.385,3267.179,3152.308
1740095396.6341,7507.692,3130.256,4747.692,3203.077,3073.333
1740095396.6419,4317.949,3067.179,4822.564,3110.256,3002.564
1740095396.6497,1214.359,3027.179,4914.359,3050.256,2966.667
1740095396.6577,6178.462,2980.513,5096.41,3008.205,2920
1740095396.6657,5770.256,2880,5222.051,2907.692,2812.821
1740095396.6736,1070.769,2887.179,5089.744,2912.821,2822.051
1740095396.6816,4720,3054.872,4901.026,3082.564,2993.846
1740095396.6896,7150.769,3178.974,4804.615,3222.051,3120
1740095396.6976,1995.897,3230.769,4693.846,3287.692,3172.308
1740095396.7054,3103.59,3382.051,4506.667,3431.282,3317.436
1740095396.7132,7493.333,3533.333,4333.846,3594.872,3476.41
1740095396.7211,3331.282,3621.538,4168.205,3727.692,3598.462
1740095396.7291,1565.128,3829.744,4050.256,3933.333,3796.923
1740095396.7371,6925.128,4063.077,3958.462,4127.179,3990.769
1740095396.7449,5316.923,4064.615,3964.615,4150.256,4021.538
1740095396.7529,1101.538,3993.846,4094.872,4127.692,4001.538
1740095396.7608,5452.308,4032.308,4213.333,4149.231,4018.974
1740095396.7688,6676.923,3992.821,4266.154,4074.872,3951.795
1740095396.7766,1470.769,3859.487,4356.923,3961.538,3847.692
1740095396.7846,3669.744,3844.103,4398.974,3972.821,3850.256
1740095396.7926,7214.359,3838.462,4373.846,3956.923,3828.205
1740095396.8005,2521.026,3695.385,4383.59,3808.718,3682.564
1740095396.8083,2264.615,3600,4405.641,3719.487,3592.308
1740095396.8163,7415.385,3569.744,4375.897,3673.333,3549.744
1740095396.8241,4354.872,3446.154,4350.769,3520.513,3403.077
1740095396.8319,1089.231,3293.846,4420,3361.538,3247.692
1740095396.8396,6071.795,3229.231,4484.103,3305.641,3194.872
1740095396.8474,5928.205,3164.103,4486.667,3241.538,3133.333
1740095396.8552,1107.692,3119.487,4476.41,3186.154,3070.769
1740095396.8632,4609.231,3157.436,4485.641,3213.333,3090.769
1740095396.871,7263.59,3157.436,4359.487,3219.487,3101.026
1740095396.8787,2143.59,3152.821,4121.026,3234.359,3117.949
1740095396.8865,2974.359,3382.051,3882.564,3458.462,3338.974
1740095396.8943,7386.667,3694.359,3711.795,3755.385,3632.821
1740095396.9021,3409.231,3901.026,3559.487,3982.564,3840
1740095396.9101,1524.103,4219.487,3336.41,4325.128,4158.462
1740095396.918,6966.154,4686.154,3029.231,4803.077,4634.359
1740095396.926,5739.487,5127.179,2729.231,5276.41,5096.41
1740095396.934,1343.59,5624.103,2351.795,5817.436,5612.308
1740095396.9418,5433.846,6206.154,2044.103,6428.718,6216.923
1740095396.9496,6955.897,6645.128,1973.846,6885.641,6675.385
1740095396.9573,1702.564,6808.205,2245.641,7061.026,6852.308
1740095396.9651,3411.282,6574.359,3172.821,6808.718,6632.308
1740095396.9731,7134.359,5862.051,4452.308,6059.487,5932.308
1740095396.9811,2691.282,4966.154,5195.897,5138.974,5042.051
1740095396.9891,2069.744,4324.103,5270.256,4493.333,4402.564
1740095396.997,7228.718,3974.359,5216.923,4136.923,4039.487
1740095397.0048,4482.051,3748.205,5025.641,3891.282,3790.769
1740095397.0126,998.974,3640.513,4815.897,3775.897,3676.923
1740095397.0204,5950.769,3630.769,4883.59,3762.564,3665.641
1740095397.0282,6205.128,3501.538,5027.692,3626.667,3537.949
1740095397.0361,1187.692,3354.359,4960,3474.359,3390.256
1740095397.0441,4369.231,3477.949,4829.231,3579.487,3492.821
1740095397.0521,7421.538,3698.462,4752.821,3767.179,3682.564
1740095397.0599,2281.026,3747.692,4724.103,3795.897,3718.462
1740095397.0679,2541.538,3765.128,4712.308,3826.667,3745.641
1740095397.0756,7253.333,3802.051,4757.949,3882.564,3795.385
1740095397.0836,3675.897,3676.41,4932.308,3762.051,3680.513
1740095397.0914,1382.564,3492.821,5248.718,3563.59,3492.821
1740095397.0994,6660.513,3344.615,5503.077,3388.205,3326.667
1740095397.1072,5554.872,3122.051,5516.923,3161.538,3105.641
1740095397.1151,1046.154,2957.949,5426.154,3001.538,2941.538
1740095397.1229,5023.59,2947.179,5451.282,2967.692,2901.026
1740095397.1309,6598.974,2798.974,5632.821,2791.795,2737.949
1740095397.1387,1458.462,2501.538,5762.564,2505.128,2457.436
1740095397.1465,3534.359,2366.667,5772.308,2374.359,2327.179
1740095397.1542,7544.615,2319.487,5781.538,2292.308,2263.59
1740095397.162,2935.385,2153.333,5816.41,2105.641,2078.462
1740095397.1698,1995.897,2050.256,5740.513,2017.949,1968.718
1740095397.1776,7109.744,2084.103,5605.128,2053.333,1998.974
1740095397.1854,4504.615,2085.641,5511.795,2003.077,1967.692
1740095397.1933,968.205,2035.385,5558.462,1892.308,1880
1740095397.2011,5915.897,2033.846,5493.846,1903.59,1891.282
1740095397.2089,6379.487,2075.897,5193.846,2025.128,1971.282
1740095397.2167,1306.667,2167.692,5004.615,2161.026,2076.41
1740095397.2245,4248.205,2294.359,4997.949,2266.667,2194.872
1740095397.2322,7245.128,2403.59,4820,2376.41,2303.077
1740095397.2402,2262.564,2596.923,4598.462,2592.308,2503.59
1740095397.2482,2621.538,2874.872,4573.333,2864.103,2775.897
1740095397.256,7321.026,3087.692,4449.744,3053.846,2964.103
1740095397.2638,3751.795,3192.308,4191.282,3149.231,3063.077
1740095397.2717,1448.205,3360.513,4017.436,3335.897,3254.872
1740095397.2797,6847.179,3620,3893.333,3612.821,3510.256
1740095397.2877,5920,3831.795,3672.821,3830.256,3710.256
1740095397.2957,1113.846,4035.385,3423.077,4056.41,3945.641
1740095397.3037,4877.949,4330.769,3238.462,4379.487,4268.718
1740095397.3116,6982.564,4620,3034.359,4678.462,4551.795
1740095397.3194,1844.103,4884.103,2726.154,4961.026,4824.103
1740095397.3272,3271.795,5291.795,2369.744,5407.179,5257.949
1740095397.3352,7733.333,5800,2008.205,5933.846,5770.256
1740095397.3432,3563.077,6221.538,1800,6364.615,6200
1740095397.3511,1809.231,6586.154,1732.308,6761.538,6593.846
1740095397.3589,6984.615,6884.103,1857.436,7078.462,6911.795
1740095397.3669,5169.231,6897.436,2274.872,7085.641,6933.846
1740095397.3749,1009.231,6597.436,2904.103,6792.308,6658.462
1740095397.3829,5382.564,6169.744,3531.795,6377.949,6259.487
1740095397.3907,6531.282,5682.564,4025.641,5860,5766.154
1740095397.3986,1440,5171.795,4377.949,5312.821,5244.615
1740095397.4064,3792.821,4822.564,4494.872,4976.41,4914.872
1740095397.4144,7206.154,4666.154,4465.128,4811.282,4748.718
1740095397.4224,2383.59,4580,4313.846,4689.744,4623.59
1740095397.4304,2225.641,4555.897,4191.795,4662.564,4601.026
1740095397.4383,7413.333,4604.103,4150.256,4718.974,4678.462
1740095397.4463,4414.359,4627.692,4078.974,4773.333,4724.103
1740095397.4543,1269.744,4698.462,3983.077,4874.872,4799.487
1740095397.4623,6281.026,4856.41,3946.154,4991.795,4920.513
1740095397.4703,6059.487,4913.846,3917.949,5009.744,4947.692
1740095397.4782,1093.333,4884.615,3886.667,5007.179,4931.795
1740095397.4862,4389.744,4942.564,3888.205,5063.077,4992.308
1740095397.494,7013.333,4942.051,3942.564,5030.769,4973.846
1740095397.5018,1940.513,4791.282,3993.333,4886.154,4823.59
1740095397.5096,2867.692,4722.564,4037.949,4831.282,4768.718
1740095397.5173,7602.051,4707.179,4048.718,4817.949,4765.641
1740095397.5253,3665.641,4611.795,4041.538,4710.256,4664.103
1740095397.5331,1417.436,4526.154,4089.231,4612.308,4569.231
1740095397.5409,6623.59,4497.436,4125.641,4604.615,4556.923
1740095397.5487,5325.128,4486.154,4101.538,4602.564,4549.231
1740095397.5564,1013.333,4536.41,4057.949,4604.103,4566.154
1740095397.5642,5267.692,4583.59,4035.385,4624.615,4594.872
1740095397.572,6843.077,4547.692,3969.231,4637.436,4575.385
1740095397.5798,1591.795,4526.154,3936.41,4655.897,4573.333
1740095397.5878,3507.692,4616.41,3965.128,4717.949,4658.462
1740095397.5957,7325.128,4700.513,3981.538,4763.59,4718.974
1740095397.6037,2713.846,4669.744,3914.872,4754.359,4689.231
1740095397.6117,1948.718,4652.821,3926.667,4776.41,4706.667
1740095397.6195,7280,4726.154,4036.923,4836.41,4794.872
1740095397.6275,4767.179,4755.897,4102.564,4818.974,4789.744
1740095397.6352,1107.692,4742.564,4100.513,4789.231,4739.487
1740095397.643,5831.795,4722.051,4141.026,4788.718,4740.513
1740095397.651,6186.667,4635.385,4179.487,4714.359,4694.359
1740095397.659,1204.103,4604.103,4190.256,4679.487,4652.821
1740095397.667,4227.692,4675.897,4212.308,4747.692,4705.128
1740095397.6747,7245.128,4642.051,4199.487,4726.154,4693.846
1740095397.6827,2283.077,4555.385,4159.487,4658.462,4629.744
1740095397.6907,2728.205,4665.128,4146.154,4750.769,4717.949
1740095397.6987,7415.385,4786.154,4161.026,4823.59,4798.974
1740095397.7065,3706.667,4709.744,4129.744,4750.769,4733.333
1740095397.7144,1312.821,4634.872,4092.308,4729.744,4711.282
1740095397.7222,6539.487,4679.487,4058.974,4789.744,4764.615
1740095397.7302,5513.846,4689.744,4036.41,4772.821,4747.692
1740095397.738,1011.282,4673.846,3987.179,4748.718,4733.846
1740095397.746,5089.231,4691.795,3972.821,4777.436,4760.513
1740095397.7537,6931.282,4673.333,4006.667,4760,4729.231
1740095397.7617,1675.897,4647.692,4051.795,4724.615,4694.359
1740095397.7695,3304.615,4677.949,4042.564,4745.128,4721.026
1740095397.7775,7251.282,4647.179,4000,4704.103,4682.051
1740095397.7853,2834.872,4556.923,3969.231,4614.359,4591.795
1740095397.7932,1975.385,4574.359,3980.513,4643.59,4622.564
1740095397.801,7286.154,4635.385,3993.846,4698.974,4685.641
1740095397.8088,4834.872,4594.872,3980,4647.692,4632.821
1740095397.8166,1122.051,4537.949,3985.641,4600,4577.436
1740095397.8244,5794.872,4553.333,4022.564,4623.077,4610.769
1740095397.8321,6157.949,4525.128,4038.974,4584.615,4585.128
1740095397.8399,1175.385,4458.462,4025.128,4516.41,4503.077
1740095397.8477,4248.205,4456.41,4036.41,4540.513,4504.615
1740095397.8555,7370.256,4500,4026.667,4586.154,4562.051
1740095397.8633,2332.308,4526.154,4005.641,4570.256,4580
1740095397.8712,2580.513,4536.923,3993.846,4578.974,4586.667
1740095397.879,7368.205,4538.462,4010.256,4618.462,4595.385
1740095397.887,3825.641,4555.385,3987.179,4605.128,4584.103
1740095397.895,1269.744,4555.897,3984.103,4567.692,4572.821
1740095397.903,6549.744,4471.795,4020.513,4546.667,4561.026
1740095397.9109,5811.282,4413.846,4064.103,4534.872,4545.128
1740095397.9189,1109.744,4518.462,4080,4595.897,4604.103
1740095397.9269,4896.41,4648.718,4095.385,4703.59,4712.821
1740095397.9347,6941.538,4656.923,4096.41,4723.077,4740
1740095397.9425,1762.051,4641.026,4083.077,4727.179,4742.564
1740095397.9504,3193.846,4709.744,4098.974,4825.128,4830.256
1740095397.9582,7364.103,4834.359,4151.795,4932.308,4942.051
1740095397.9662,3083.077,4911.795,4196.41,4972.821,4997.436
1740095397.974,1842.051,4889.231,4187.692,4981.538,5001.538
1740095397.982,7179.487,4809.231,4158.974,4947.179,4956.41
1740095397.9899,5027.692,4773.333,4134.872,4883.59,4907.179
1740095397.9979,984.615,4774.359,4140.513,4854.872,4888.718
1740095398.0057,5515.897,4732.821,4123.077,4832.308,4852.308
1740095398.0137,6375.385,4635.897,4104.103,4754.872,4770.256
1740095398.0217,1304.615,4591.795,4083.077,4713.333,4737.436
1740095398.0296,3991.795,4611.795,4082.564,4734.359,4753.333
1740095398.0374,7405.128,4598.462,4068.718,4726.667,4736.41
1740095398.0454,2527.179,4596.41,4093.333,4701.538,4727.179
1740095398.0532,2397.949,4671.795,4147.179,4744.103,4788.205
1740095398.0612,7165.128,4676.923,4154.359,4741.026,4786.154
1740095398.069,3852.308,4542.564,4090.769,4599.487,4648.205
1740095398.0769,1247.179,4472.821,4080,4523.077,4576.923
1740095398.0847,6531.282,4531.795,4107.179,4594.872,4634.872
1740095398.0927,5891.282,4543.59,4086.667,4608.718,4647.179
1740095398.1005,1109.744,4482.051,4056.41,4526.154,4581.026
1740095398.1085,4791.795,4464.615,4078.462,4512.821,4562.564
1740095398.1162,6890.256,4432.821,4111.795,4502.564,4541.026
1740095398.124,1729.231,4377.436,4102.051,4455.897,4502.564
1740095398.1318,3179.487,4429.744,4140,4497.436,4556.41
1740095398.1396,7532.308,4504.615,4199.487,4552.821,4617.949
1740095398.1474,3269.744,4428.718,4208.205,4485.128,4543.59
1740095398.1551,1716.923,4388.718,4178.974,4460,4505.128
1740095398.1629,7056.41,4490.769,4203.077,4546.154,4589.231
1740095398.1707,5154.872,4547.179,4204.615,4587.692,4631.282
1740095398.1785,918.974,4549.744,4174.359,4595.385,4636.41
1740095398.1863,5366.154,4607.692,4138.974,4652.308,4701.026
1740095398.194,6629.744,4638.974,4107.179,4703.59,4752.821
1740095398.202,1456.41,4673.333,4110.769,4768.718,4810.769
1740095398.21,3745.641,4774.872,4185.641,4850.256,4898.462
1740095398.218,7401.026,4705.128,4216.41,4769.744,4828.205
1740095398.226,2658.462,4569.231,4243.59,4651.795,4713.333
1740095398.2337,2170.256,4678.974,4315.385,4743.077,4810.256
1740095398.2417,7076.923,4739.487,4278.974,4797.436,4872.308
1740095398.2495,4090.256,4528.718,4165.128,4648.205,4720.513
1740095398.2573,1204.103,4463.077,4163.59,4594.359,4672.821
1740095398.2653,6397.949,4575.897,4226.154,4639.487,4738.974
1740095398.273,6047.179,4490.256,4176.923,4552.308,4649.231
1740095398.281,1115.897,4343.077,4127.179,4445.641,4522.564
1740095398.2888,4562.051,4385.128,4134.872,4465.128,4543.59
1740095398.2968,6904.615,4435.897,4149.231,4480.513,4570.256
1740095398.3046,1835.897,4473.846,4141.026,4513.846,4602.051
1740095398.3125,3146.667,4619.487,4152.308,4661.026,4741.538
1740095398.3203,7649.231,4707.692,4118.462,4749.744,4824.615
1740095398.3283,3493.333,4657.436,4072.308,4696.41,4783.077
1740095398.3361,1710.769,4681.026,4105.641,4717.436,4821.538
1740095398.3441,6822.564,4746.667,4204.103,4790.769,4890.769
1740095398.3518,4939.487,4683.59,4235.385,4717.949,4811.282
1740095398.3598,916.923,4617.949,4228.205,4627.692,4733.846
1740095398.3676,5483.077,4632.308,4230.256,4660.513,4768.205
1740095398.3756,6646.154,4592.821,4198.974,4649.231,4749.744
1740095398.3834,1478.974,4521.026,4157.949,4551.282,4667.179
1740095398.3911,3840,4549.744,4154.872,4551.282,4675.385
1740095398.3989,7331.282,4571.282,4140.513,4606.154,4713.333
1740095398.4069,2514.872,4496.41,4098.974,4557.949,4669.744
1740095398.4147,2213.333,4485.641,4136.923,4508.205,4638.974
1740095398.4225,7314.872,4582.564,4166.667,4552.308,4678.462
1740095398.4302,4309.744,4538.974,4113.846,4511.282,4637.949
1740095398.438,1204.103,4416.41,4085.128,4456.923,4584.103
1740095398.4458,6297.436,4457.949,4160,4542.564,4649.744
1740095398.4538,6086.154,4528.205,4165.128,4585.128,4699.487
1740095398.4618,1128.205,4524.615,4122.564,4564.615,4692.308
1740095398.4695,4459.487,4577.436,4138.974,4640.513,4755.897
1740095398.4773,6974.359,4609.744,4190.256,4657.436,4781.538
1740095398.4851,1917.949,4547.692,4207.692,4566.667,4712.821
1740095398.4929,3011.282,4550.256,4257.949,4585.128,4718.974
1740095398.5007,7600,4568.718,4293.333,4607.692,4736.923
1740095398.5084,3526.154,4464.615,4277.949,4483.59,4634.359
1740095398.5164,1530.256,4402.564,4278.974,4422.564,4570.256
1740095398.5244,6720,4409.744,4259.487,4435.897,4561.538
1740095398.5324,5134.359,4306.667,4203.077,4330.256,4454.872
1740095398.5404,1042.051,4261.538,4212.821,4284.615,4413.333
1740095398.5483,5485.128,4349.744,4241.026,4368.718,4486.154
1740095398.5563,6732.308,4327.179,4174.359,4345.128,4449.744
1740095398.5641,1567.179,4271.795,4161.538,4282.051,4385.641
1740095398.5719,3762.051,4406.667,4211.282,4379.487,4488.205
1740095398.5799,7146.667,4438.462,4194.359,4396.41,4512.308
1740095398.5878,2387.692,4264.103,4147.692,4258.974,4376.923
1740095398.5958,2237.949,4250.769,4206.154,4261.026,4372.821
1740095398.6038,7460.513,4372.821,4242.564,4352.308,4458.462
1740095398.6118,4428.718,4325.641,4199.487,4300,4398.974
1740095398.6196,1163.077,4237.436,4170.256,4235.385,4330.769
1740095398.6275,6194.872,4334.872,4229.231,4327.179,4434.359
1740095398.6355,6100.513,4408.718,4243.59,4382.564,4513.333
1740095398.6435,1117.949,4324.615,4185.128,4307.179,4472.821
1740095398.6515,4438.974,4350.256,4188.718,4338.974,4556.923
1740095398.6595,7195.897,4455.385,4246.667,4432.821,4703.59
1740095398.6672,2067.692,4400,4236.923,4387.692,4684.103
1740095398.6752,2814.359,4357.436,4218.974,4360,4657.949
1740095398.683,7542.564,4416.41,4256.923,4399.487,4701.538
1740095398.691,3669.744,4370.256,4247.179,4331.795,4644.615
1740095398.699,1384.615,4308.205,4230.769,4272.821,4585.641
1740095398.7067,6615.385,4368.205,4251.282,4338.462,4641.538
1740095398.7145,5372.308,4340.513,4240.513,4314.359,4616.923
1740095398.7225,1011.282,4292.821,4191.795,4266.667,4581.026
1740095398.7303,5230.769,4384.103,4210.769,4340,4668.205
1740095398.7381,6810.256,4406.154,4219.487,4354.872,4692.821
1740095398.7459,1597.949,4300,4191.282,4283.077,4620.513
1740095398.7536,3528.205,4290.256,4162.051,4299.487,4622.564
1740095398.7614,7204.103,4360,4164.615,4339.487,4655.897
1740095398.7692,2611.282,4358.462,4166.154,4316.41,4642.051
1740095398.777,2160,4364.615,4189.744,4332.821,4662.564
1740095398.7848,7329.231,4381.538,4177.949,4352.308,4671.282
1740095398.7925,4490.256,4329.744,4144.103,4296.41,4608.205
1740095398.8003,1259.487,4330.769,4162.051,4285.641,4606.154
1740095398.8081,6067.692,4388.205,4177.949,4334.872,4660.513
1740095398.8161,5794.872,4327.692,4129.744,4291.795,4603.59
1740095398.8241,1124.103,4273.846,4132.308,4253.333,4552.821
1740095398.832,4722.051,4363.59,4207.692,4334.359,4633.333
1740095398.84,7113.846,4389.744,4193.846,4349.744,4654.359
1740095398.8478,2012.308,4322.564,4153.846,4276.41,4589.231
1740095398.8558,3146.667,4371.795,4164.103,4325.128,4630.769
1740095398.8636,7271.795,4422.051,4170.256,4379.487,4661.026
1740095398.8713,3070.769,4374.872,4146.667,4334.359,4604.103
1740095398.8793,1741.538,4391.795,4168.205,4360,4635.385
1740095398.8873,7011.282,4438.462,4156.923,4408.205,4682.051
1740095398.8953,4984.615,4366.154,4141.538,4330.256,4593.846
1740095398.9031,1130.256,4335.385,4178.462,4306.667,4570.256
1740095398.911,5725.128,4416.923,4215.385,4385.641,4656.41
1740095398.9188,6438.974,4398.974,4175.897,4355.385,4621.026
1740095398.9268,1280,4316.41,4141.026,4274.872,4528.205
1740095398.9346,3952.821,4362.564,4149.231,4328.205,4574.359
1740095398.9426,7304.615,4403.077,4149.744,4365.641,4611.795
1740095398.9503,2418.462,4338.462,4142.564,4302.051,4552.308
1740095398.9583,2449.231,4360.513,4172.308,4329.231,4581.026
1740095398.9663,7442.051,4378.974,4192.308,4348.718,4588.718
1740095398.9743,4116.923,4269.744,4171.282,4247.179,4476.41
1740095398.9821,1226.667,4242.051,4196.923,4222.564,4461.538
1740095398.99,6274.872,4325.128,4237.436,4297.436,4536.923
1740095398.9978,5645.128,4276.923,4231.795,4249.744,4472.821
1740095399.0058,1054.359,4205.128,4197.949,4190.256,4412.308
1740095399.0136,4904.615,4273.333,4215.385,4248.718,4481.538
1740095399.0216,6968.205,4298.462,4203.077,4252.308,4474.359
1740095399.0295,1792.821,4229.744,4162.051,4176.923,4392.308
1740095399.0373,3284.103,4255.385,4157.949,4196.923,4423.59
1740095399.0451,7312.821,4314.872,4209.744,4263.59,4476.41
1740095399.0529,2923.077,4274.872,4190.769,4241.538,4434.872
1740095399.0607,1883.077,4246.154,4155.897,4208.718,4410.256
1740095399.0684,7241.026,4292.308,4202.564,4249.231,4452.308
1740095399.0762,4935.385,4291.282,4240.513,4256.41,4445.128
1740095399.084,1103.59,4273.333,4212.821,4235.897,4422.051
1740095399.092,5725.128,4313.333,4215.385,4269.231,4457.949
1740095399.0998,6237.949,4266.154,4216.923,4232.308,4417.949
1740095399.1075,1222.564,4186.154,4197.436,4145.128,4328.718
1740095399.1153,4118.974,4245.641,4225.641,4187.692,4358.974
1740095399.1231,7243.077,4281.026,4219.487,4239.487,4396.41
1740095399.1311,2363.077,4196.923,4195.385,4172.308,4334.359
1740095399.1391,2711.795,4237.949,4237.436,4202.564,4369.231
1740095399.147,7364.103,4341.026,4275.897,4306.154,4460
1740095399.155,3723.077,4292.308,4217.436,4280,4425.128
1740095399.1628,1349.744,4279.487,4218.462,4266.667,4420.513
1740095399.1706,6596.923,4383.077,4246.154,4341.538,4505.128
1740095399.1784,5610.256,4376.41,4223.077,4314.359,4475.385
1740095399.1861,1136.41,4333.846,4197.436,4277.949,4430.256
1740095399.1941,5144.615,4392.821,4205.128,4355.385,4495.385
1740095399.2019,6843.077,4408.718,4169.231,4382.564,4510.256
1740095399.2099,1645.128,4363.59,4135.897,4346.667,4472.308
1740095399.2179,3429.744,4381.026,4126.667,4372.308,4502.051
1740095399.2258,7280,4385.641,4105.641,4375.897,4507.179
1740095399.2336,2775.385,4329.231,4097.949,4316.923,4446.154
1740095399.2416,2061.538,4335.385,4135.385,4332.821,4449.744
1740095399.2494,7318.974,4348.718,4157.436,4360.513,4462.051
1740095399.2574,4674.872,4308.718,4155.897,4317.949,4420.513
1740095399.2651,1130.256,4341.538,4213.333,4332.821,4447.692
1740095399.2731,5899.487,4407.179,4262.564,4395.897,4508.718
1740095399.2809,6049.231,4331.282,4262.051,4331.795,4433.846
1740095399.2889,1202.051,4257.949,4278.974,4256.923,4355.897
1740095399.2967,4453.333,4295.385,4367.692,4278.462,4375.897
1740095399.3046,7175.385,4249.231,4410.256,4226.154,4320
1740095399.3126,2143.59,4115.897,4405.641,4107.692,4202.564
1740095399.3206,2900.513,4101.026,4393.333,4103.59,4198.974
1740095399.3286,7257.436,4110.769,4389.744,4097.949,4191.282
1740095399.3366,3312.821,4047.179,4378.974,4024.103,4115.897
1740095399.3445,1608.205,4072.821,4400,4060.513,4148.205
1740095399.3525,6949.744,4124.103,4395.385,4117.949,4196.41
1740095399.3605,5304.615,4020,4376.923,4010.769,4082.564
1740095399.3683,1105.641,3944.103,4437.436,3927.692,3999.487
1740095399.3761,5409.231,4013.846,4510.256,3984.103,4055.385
1740095399.3838,6484.103,3998.462,4458.974,3968.205,4037.949
1740095399.3916,1394.872,3908.205,4421.538,3893.846,3956.41
1740095399.3994,3807.179,3925.128,4487.179,3923.59,3970.256
1740095399.4072,7304.615,3958.974,4422.564,3963.59,4002.051
1740095399.415,2592.821,3938.974,4253.333,3961.538,4003.59
1740095399.4228,2447.179,4028.718,4207.692,4086.667,4127.692
1740095399.4307,7394.872,4164.103,4261.538,4250.769,4284.103
1740095399.4387,4174.359,4167.179,4235.897,4275.385,4309.231
1740095399.4467,1175.385,4136.923,4215.897,4271.282,4306.667
1740095399.4547,6264.615,4182.564,4237.949,4326.154,4362.051
1740095399.4627,5899.487,4175.385,4240,4293.333,4335.897
1740095399.4706,1105.641,4133.846,4194.872,4206.154,4261.026
1740095399.4784,4717.949,4176.923,4169.744,4193.333,4258.462
1740095399.4862,7083.077,4202.564,4162.051,4170.769,4243.077
1740095399.4942,1913.846,4188.718,4185.641,4122.564,4208.718
1740095399.502,3040,4234.872,4211.282,4129.744,4225.128
1740095399.5099,7238.974,4251.282,4211.795,4113.333,4206.667
1740095399.5177,3109.744,4196.923,4198.974,4053.333,4152.308
1740095399.5257,1825.641,4250.256,4188.718,4097.949,4210.769
1740095399.5335,7154.872,4366.154,4147.179,4191.795,4307.692
1740095399.5415,5081.026,4378.462,4110.256,4195.897,4308.205
1740095399.5492,1109.744,4389.231,4083.59,4216.41,4323.59
1740095399.5572,5628.718,4530.769,3933.846,4360,4462.564
1740095399.5652,6383.59,4612.821,3760,4436.923,4544.103
1740095399.5732,1325.128,4595.385,3724.103,4423.59,4534.359
1740095399.5812,4053.333,4685.128,3776.923,4529.231,4629.744
1740095399.5891,7425.641,4788.718,3807.179,4642.564,4739.487
1740095399.5971,2535.385,4712.821,3895.385,4556.41,4660
1740095399.6051,2426.667,4651.795,3972.821,4484.103,4581.538
1740095399.6129,7228.718,4699.487,3997.949,4527.179,4609.744
1740095399.6209,3926.154,4642.564,4001.026,4478.974,4555.897
1740095399.6286,1181.538,4543.59,4026.154,4394.359,4471.795
1740095399.6364,6416.41,4548.718,4088.718,4403.59,4477.949
1740095399.6444,5944.615,4509.744,4172.821,4372.821,4443.077
1740095399.6522,1122.051,4440.513,4215.897,4293.333,4361.026
1740095399.66,4681.026,4460,4232.308,4279.487,4341.538
1740095399.6677,6910.769,4441.538,4177.949,4262.051,4322.564
1740095399.6755,1778.462,4389.231,3999.487,4250.256,4310.256
1740095399.6833,3054.359,4503.59,3836.923,4374.872,4428.718
1740095399.6911,7450.256,4714.872,3730.256,4565.128,4615.897
1740095399.6989,3353.846,4830.769,3626.154,4683.59,4740.513
1740095399.7066,1821.538,4947.692,3570.769,4814.359,4878.974
1740095399.7144,7091.282,5067.692,3607.692,4928.205,5001.026
1740095399.7222,5173.333,5074.359,3603.077,4924.103,5003.59
1740095399.7302,1009.231,5090.769,3537.949,4945.641,5025.128
1740095399.738,5417.436,5218.974,3425.641,5086.154,5167.179
1740095399.7459,6525.128,5294.359,3334.872,5163.077,5249.231
1740095399.7539,1392.821,5314.359,3299.487,5183.077,5270.256
1740095399.7619,3825.641,5396.41,3288.718,5271.795,5356.41
1740095399.7699,7456.41,5449.231,3249.231,5332.821,5417.949
1740095399.7779,2707.692,5454.359,3250.256,5348.205,5434.872
1740095399.7856,2305.641,5532.821,3261.538,5440.513,5522.564
1740095399.7934,7169.231,5625.128,3255.385,5528.718,5614.872
1740095399.8012,4104.615,5627.692,3284.615,5506.667,5606.154
1740095399.8092,1197.949,5614.359,3377.949,5482.051,5580.513
1740095399.817,6367.179,5597.949,3471.795,5477.949,5561.026
1740095399.8249,6098.462,5516.41,3465.128,5405.641,5489.231
1740095399.8329,1179.487,5475.385,3402.564,5357.949,5455.897
1740095399.8409,4596.923,5633.333,3317.949,5495.897,5597.949
1740095399.8487,7050.256,5810.769,3248.718,5648.718,5748.205
1740095399.8567,1930.256,5805.128,3269.744,5634.872,5735.897
1740095399.8646,2943.59,5734.359,3481.538,5562.564,5670.256
1740095399.8726,7450.256,5690.769,3716.923,5506.667,5620.513
1740095399.8804,3493.333,5561.026,3832.821,5362.051,5488.718
1740095399.8884,1690.256,5407.179,3871.282,5214.872,5351.795
1740095399.8964,6820.513,5387.692,3830.769,5205.128,5340.513
1740095399.9043,5066.667,5458.974,3600.513,5263.59,5397.949
1740095399.9121,970.256,5616.923,3222.564,5409.231,5544.103
1740095399.9201,5448.205,5888.205,2914.872,5687.179,5820
1740095399.9279,6728.205,6136.41,2727.179,5940.513,6080.513
1740095399.9359,1573.333,6366.667,2385.128,6178.462,6321.026
1740095399.9436,3913.846,6767.179,2029.744,6608.718,6728.205
1740095399.9516,7608.205,7238.974,1801.026,7105.641,7212.308
1740095399.9594,2785.641,7478.462,1705.641,7359.487,7464.615
1740095399.9672,2125.128,7483.59,1986.154,7387.692,7489.231
1740095399.975,7085.128,7384.615,2506.154,7301.026,7424.103
1740095399.9827,4223.59,7148.718,2797.436,7060,7214.872
1740095399.9905,1156.923,6807.692,3095.897,6711.282,6873.846
1740095399.9983,6203.077,6415.897,3830.769,6300.513,6472.308
1740095400.0061,5977.436,5982.564,4313.333,5842.051,6040.513
1740095400.0139,1134.359,5603.59,4299.487,5458.974,5660.513
1740095400.0216,4531.282,5401.026,4310.256,5247.179,5440.513
1740095400.0294,6843.077,5218.974,4432.308,5037.949,5237.949
1740095400.0372,1833.846,4987.179,4392.308,4800.513,5000.513
1740095400.045,3195.897,4900,4308.205,4711.282,4909.744
1740095400.0528,7589.744,4922.051,4209.231,4724.615,4925.128
1740095400.0607,3403.077,4914.359,3955.385,4717.949,4921.538
1740095400.0687,1770.256,4931.795,3732.308,4739.487,4949.231
1740095400.0767,6838.974,5010.769,3670.769,4814.359,5025.128
1740095400.0847,4771.282,5003.077,3771.282,4799.487,5003.59
1740095400.0925,927.179,4830.256,4205.128,4613.846,4815.897
1740095400.1003,5593.846,4521.538,4777.436,4288.718,4487.692
1740095400.108,6477.949,4175.897,4951.282,3941.538,4131.282
1740095400.1158,1444.103,3964.103,4830.769,3736.923,3924.103
1740095400.1238,4088.205,3911.795,4813.333,3676.923,3867.692
1740095400.1318,7175.385,3838.974,4824.103,3586.154,3778.974
1740095400.1398,2258.462,3731.282,4714.872,3468.205,3668.718
1740095400.1477,2508.718,3733.846,4579.487,3471.795,3673.333
1740095400.1557,7374.359,3900.513,4157.436,3642.051,3835.385
1740095400.1637,4008.205,4168.205,3630.256,3916.923,4106.667
1740095400.1717,1632.821,4367.692,3802.564,4108.205,4295.897
1740095400.1795,6623.59,4273.333,4434.359,3992.821,4179.487
1740095400.1874,5392.821,4020.513,4500.513,3747.179,3930.769
1740095400.1954,996.923,3923.59,4334.872,3668.205,3840.513
1740095400.2034,5083.077,3928.718,4542.564,3674.359,3835.897
1740095400.2112,6676.923,3831.282,4725.128,3568.205,3737.949
1740095400.2192,1579.487,3690.769,4685.128,3425.128,3603.077
1740095400.2269,3665.641,3625.128,4752.821,3356.41,3526.154
1740095400.2349,7456.41,3551.795,4840,3276.41,3444.615
1740095400.2427,2763.077,3441.026,4842.051,3170.769,3350.256
1740095400.2507,2088.205,3405.128,4874.872,3144.103,3327.179
1740095400.2585,7105.641,3433.333,4865.128,3170.769,3349.744
1740095400.2664,4281.026,3395.897,4784.615,3131.795,3305.641
1740095400.2742,1167.179,3391.795,4698.462,3135.897,3307.179
1740095400.2822,6305.641,3461.538,4648.205,3209.744,3376.923
1740095400.29,6231.795,3467.179,4546.667,3217.436,3377.436
1740095400.2978,1204.103,3490.256,4436.923,3247.692,3402.051
1740095400.3055,4422.564,3642.564,4357.949,3402.051,3549.744
1740095400.3133,6900.513,3737.949,4286.667,3504.103,3647.179
1740095400.3211,1897.436,3767.179,4181.538,3541.026,3689.231
1740095400.3289,3029.744,3892.308,4174.872,3654.872,3807.692
1740095400.3367,7554.872,3953.333,4230.256,3711.795,3856.923
1740095400.3444,3561.026,3832.821,4270.256,3603.59,3748.718
1740095400.3522,1792.821,3794.872,4262.564,3569.744,3718.462
1740095400.3602,6838.974,3864.103,4206.154,3646.667,3784.103
1740095400.3682,4916.923,3831.282,4155.385,3637.436,3764.615
1740095400.3762,964.103,3833.846,4213.333,3646.667,3775.385
1740095400.3841,5558.974,3941.538,4286.154,3734.872,3864.103
1740095400.3921,6576.41,3903.59,4313.846,3687.179,3817.436
1740095400.4001,1415.385,3755.385,4430.769,3546.154,3678.462
1740095400.4079,3893.333,3747.179,4546.154,3534.872,3660.513
1740095400.4157,7251.282,3711.795,4558.974,3496.41,3612.821
1740095400.4236,2389.744,3573.846,4565.641,3372.821,3490.256
1740095400.4316,2289.231,3581.026,4618.974,3389.744,3507.692
1740095400.4396,7286.154,3668.718,4604.103,3470.256,3580.513
1740095400.4476,4147.692,3595.385,4582.051,3396.41,3498.974
1740095400.4556,1333.333,3536.41,4544.615,3346.154,3445.128
1740095400.4635,6432.821,3615.897,4480,3429.744,3521.538
1740095400.4715,5881.026,3592.308,4457.949,3418.462,3507.692
1740095400.4793,1056.41,3504.103,4536.41,3341.026,3431.795
1740095400.4873,4683.077,3598.462,4533.846,3425.641,3511.795
1740095400.4951,7027.692,3696.41,4440.513,3513.333,3600.513
1740095400.503,1881.026,3647.179,4410.256,3473.333,3566.667
1740095400.5108,3130.256,3701.538,4438.974,3526.667,3614.359
1740095400.5188,7591.795,3821.026,4393.333,3632.308,3710.769
1740095400.5266,3380.513,3745.641,4353.846,3561.026,3643.077
1740095400.5346,1589.744,3642.564,4384.103,3469.231,3553.333
1740095400.5423,6789.744,3671.282,4367.692,3502.564,3583.077
1740095400.5503,5017.436,3638.974,4347.179,3481.026,3558.974
1740095400.5581,1017.436,3607.692,4375.385,3463.59,3537.949
1740095400.5661,5558.974,3694.872,4391.795,3551.282,3618.974
1740095400.5739,6662.564,3750.256,4351.282,3606.667,3670.769
1740095400.5818,1548.718,3758.974,4348.718,3616.923,3678.974
1740095400.5896,3870.769,3838.462,4349.231,3686.154,3745.641
1740095400.5976,7076.923,3863.077,4335.897,3716.923,3771.282
1740095400.6054,2328.205,3824.615,4295.897,3697.949,3751.282
1740095400.6132,2443.077,3885.641,4278.974,3762.564,3815.897
1740095400.6209,7470.769,3954.872,4264.615,3827.692,3870.256
1740095400.6287,4264.615,3917.436,4258.462,3789.231,3821.538
1740095400.6365,1448.205,3926.667,4281.538,3790.769,3821.026
1740095400.6443,6420.513,3996.923,4340.513,3851.795,3879.487
1740095400.6521,5698.462,3951.795,4347.692,3813.846,3842.051
1740095400.6598,1023.59,3889.744,4332.821,3766.667,3795.385
1740095400.6676,4822.564,3931.795,4374.872,3821.538,3841.538
1740095400.6756,7040,3926.154,4421.538,3812.821,3832.308
1740095400.6836,1881.026,3832.308,4453.846,3718.462,3748.718
1740095400.6916,3253.333,3838.974,4491.282,3738.974,3766.154
1740095400.6995,7435.897,3880,4479.487,3778.974,3797.436
1740095400.7073,3134.359,3833.846,4397.436,3724.103,3743.59
1740095400.7151,1784.615,3811.282,4454.359,3706.667,3724.103
1740095400.7229,6966.154,3876.923,4466.667,3773.846,3785.641
1740095400.7307,4867.692,3948.718,4227.692,3851.795,3854.872
1740095400.7386,1232.821,4011.282,4095.385,3936.41,3928.205
1740095400.7466,5887.179,4020,4292.821,3948.205,3940
1740095400.7546,6350.769,3925.128,4376.923,3851.795,3846.154
1740095400.7626,1310.769,3863.077,4311.282,3805.641,3795.385
1740095400.7706,4168.205,3917.949,4345.641,3854.359,3847.692
1740095400.7783,7130.256,3906.154,4362.051,3826.667,3821.538
1740095400.7863,2166.154,3818.462,4303.077,3754.359,3731.282
1740095400.7941,2664.615,3858.974,4357.949,3809.744,3780.513
1740095400.8021,7536.41,3921.538,4408.718,3862.564,3842.564
1740095400.8099,3895.385,3850.769,4381.026,3785.641,3763.077
1740095400.8179,1384.615,3802.051,4371.795,3741.538,3712.821
1740095400.8256,6418.462,3844.103,4376.41,3791.282,3761.538
1740095400.8336,5327.179,3842.051,4380.513,3792.821,3761.026
1740095400.8414,1058.462,3859.487,4402.564,3804.615,3771.282
1740095400.8494,5251.282,3925.128,4447.179,3867.179,3828.205
1740095400.8572,6896.41,3904.103,4420,3855.897,3809.744
1740095400.8651,1725.128,3858.462,4362.564,3820.513,3774.872
1740095400.8729,3569.231,3926.667,4335.897,3892.308,3843.59
1740095400.8809,7183.59,3974.872,4349.744,3937.949,3883.077
1740095400.8887,2596.923,3944.615,4336.923,3914.359,3861.538
1740095400.8967,2096.41,3975.385,4371.282,3954.872,3904.103
1740095400.9044,7343.59,4034.872,4412.821,4011.282,3954.359
1740095400.9124,4648.205,3993.846,4410.256,3967.692,3912.308
1740095400.9202,1257.436,3967.692,4383.59,3955.897,3904.615
1740095400.928,6073.846,3980.513,4383.077,3980,3928.205
1740095400.9358,6043.077,3922.564,4365.641,3918.974,3866.154
1740095400.9437,1167.179,3903.59,4388.205,3891.795,3838.462
1740095400.9515,4426.667,3943.59,4418.974,3927.179,3873.333
1740095400.9595,7076.923,3881.538,4385.128,3862.051,3807.692
1740095400.9673,2088.205,3794.359,4355.897,3788.205,3732.821
1740095400.9753,3042.051,3844.615,4334.872,3853.333,3797.436
1740095400.9832,7487.179,3872.308,4269.231,3872.821,3817.436
1740095400.9912,3431.795,3849.744,4231.282,3836.923,3778.974
1740095400.9992,1583.59,3931.282,4306.667,3918.974,3864.615
1740095401.007,6765.128,4015.385,4332.821,4004.615,3956.41
1740095401.0148,5091.282,3957.436,4304.103,3946.154,3894.359
1740095401.0225,1074.872,3938.462,4316.923,3934.359,3878.462
1740095401.0303,5593.846,4018.974,4374.359,4014.872,3963.077
1740095401.0383,6693.333,4004.615,4361.026,4001.538,3955.385
1740095401.0463,1437.949,3923.077,4333.846,3927.179,3885.128
1740095401.0543,3718.974,3916.923,4314.359,3916.41,3874.359
1740095401.0622,7111.795,3925.641,4306.154,3921.026,3878.462
1740095401.0702,2426.667,3930.256,4301.538,3926.154,3893.846
1740095401.078,2453.333,3988.205,4323.59,3967.179,3951.282
1740095401.086,7520,4022.051,4323.59,3983.59,3972.308
1740095401.0938,4281.026,4007.692,4302.051,3978.462,3965.128
1740095401.1017,1284.103,4057.949,4292.821,4034.872,4026.154
1740095401.1095,6260.513,4131.282,4281.026,4093.333,4090.256
1740095401.1175,5696.41,4085.641,4255.385,4049.744,4042.564
1740095401.1253,1050.256,4041.538,4220.513,4032.821,4020
1740095401.1333,4820.513,4126.154,4205.128,4120.513,4107.179
1740095401.1412,7109.744,4168.205,4181.026,4142.564,4127.179
1740095401.1492,1965.128,4072.308,4176.923,4051.282,4029.744
1740095401.157,3202.051,4075.385,4185.128,4080,4050.256
1740095401.165,7355.897,4172.821,4196.41,4180,4150.256
1740095401.1728,3076.923,4155.897,4163.077,4151.795,4128.205
1740095401.1807,1653.333,4133.333,4170.769,4129.231,4100.513
1740095401.1885,7066.667,4202.564,4176.923,4201.538,4165.128
1740095401.1965,5228.718,4174.872,4140.513,4191.795,4163.077
1740095401.2043,1130.256,4130.256,4126.154,4165.641,4138.462
1740095401.2121,5579.487,4229.231,4124.103,4254.872,4213.846
1740095401.2198,6588.718,4297.436,4069.744,4313.333,4264.615
1740095401.2276,1398.974,4232.821,4152.308,4259.487,4215.385
1740095401.2356,3755.897,4178.974,4323.59,4218.974,4180.513
1740095401.2436,7259.487,4145.641,4346.667,4178.462,4143.077
1740095401.2516,2518.974,4055.385,4289.744,4074.359,4039.487
1740095401.2593,2299.487,4008.718,4336.923,4026.667,3994.359
1740095401.2671,7390.769,3994.872,4370.256,4029.744,3998.974
1740095401.2749,4322.051,3946.667,4346.667,3989.744,3955.897
1740095401.2827,1150.769,3926.667,4384.103,3951.795,3914.872
1740095401.2907,6092.308,3957.949,4399.487,3979.487,3938.974
1740095401.2986,5844.103,3941.538,4362.564,3975.385,3929.231
1740095401.3066,1099.487,3925.641,4332.821,3957.949,3910.769
1740095401.3146,4658.462,3980.513,4371.282,4003.59,3958.462
1740095401.3226,7144.615,3991.795,4362.051,4016.923,3970.256
1740095401.3306,2030.769,3927.692,4344.103,3958.462,3913.333
1740095401.3383,3035.897,3930.769,4353.846,3967.179,3917.949
1740095401.3461,7288.205,3926.154,4381.026,3977.949,3918.974
1740095401.3541,3191.795,3817.949,4348.718,3881.538,3819.487
1740095401.3619,1667.692,3805.128,4311.795,3864.103,3802.564
1740095401.3699,7091.282,3928.205,4329.231,3980.513,3917.436
1740095401.3778,5337.436,3946.667,4363.59,3999.487,3939.487
1740095401.3858,1095.385,3903.59,4368.205,3957.436,3901.538
1740095401.3936,5396.923,3964.615,4354.872,4014.359,3960
1740095401.4016,6471.795,3984.615,4338.974,4037.436,3984.615
1740095401.4094,1372.308,3933.333,4339.487,3989.231,3937.436
1740095401.4173,3782.564,3935.897,4377.949,3993.333,3942.564
1740095401.4251,7409.231,3934.872,4366.154,3998.462,3948.205
1740095401.4331,2705.641,3877.949,4336.41,3945.128,3888.718
1740095401.4409,2346.667,3884.103,4354.359,3950.256,3886.154
1740095401.4489,7335.385,3909.231,4396.923,3969.231,3906.154
1740095401.4566,4260.513,3880,4390.769,3937.949,3881.538
1740095401.4646,1066.667,3913.333,4411.795,3976.41,3921.538
1740095401.4724,6153.846,4011.282,4432.308,4077.949,4021.538
1740095401.4804,6135.385,3983.59,4423.077,4053.846,4001.026
1740095401.4882,1181.538,3910.256,4394.359,3985.641,3929.744
1740095401.4961,4498.462,3968.718,4418.974,4032.308,3965.641
1740095401.5039,7222.564,3992.308,4437.949,4041.538,3972.821
1740095401.5119,2090.256,3886.154,4396.923,3953.333,3887.692
1740095401.5197,2742.564,3849.231,4364.615,3938.974,3869.231
1740095401.5275,7241.026,3894.359,4400,3979.487,3907.179
1740095401.5355,3392.821,3876.41,4424.103,3952.821,3885.128
1740095401.5432,1470.769,3855.897,4431.282,3929.231,3864.615
1740095401.551,6886.154,3852.308,4453.846,3926.154,3862.051
1740095401.5588,5497.436,3814.872,4420.513,3889.744,3826.667
1740095401.5666,1019.487,3807.179,4382.051,3880,3816.41
1740095401.5746,5140.513,3880.513,4385.128,3949.744,3882.564
1740095401.5823,6640,3910.769,4366.154,3982.564,3909.744
1740095401.5903,1511.795,3882.051,4284.103,3965.641,3889.231
1740095401.5981,3628.718,3908.205,4271.282,4001.026,3923.59
1740095401.6061,7569.231,3976.923,4282.564,4066.667,3991.282
1740095401.6141,2976.41,3980.513,4285.128,4060.513,3989.231
1740095401.6218,2118.974,3955.385,4284.615,4036.923,3965.128
1740095401.6298,7122.051,3950.256,4291.282,4037.436,3958.974
1740095401.6376,4430.769,3924.103,4280.513,4006.667,3926.154
1740095401.6454,1060.513,3896.923,4323.59,3971.795,3896.41
1740095401.6532,6012.308,3877.436,4376.923,3952.308,3872.821
1740095401.661,6242.051,3809.744,4369.744,3894.359,3808.205
1740095401.669,1290.256,3786.154,4355.897,3875.897,3794.872
1740095401.677,4395.897,3870.769,4369.744,3951.282,3875.897
1740095401.685,7078.974,3897.436,4327.179,3974.359,3894.359
1740095401.693,2034.872,3894.359,4204.615,3976.923,3898.462
1740095401.7009,2824.615,4026.667,4151.282,4105.641,4035.897
1740095401.7089,7493.333,4169.744,4154.872,4246.667,4177.436
1740095401.7169,3675.897,4182.051,4098.974,4274.872,4203.077
1740095401.7247,1571.282,4239.487,4017.436,4337.949,4270.769
1740095401.7327,6869.744,4330.769,4076.41,4416.923,4352.821
1740095401.7404,5509.744,4256.923,4198.974,4345.641,4274.359
1740095401.7484,1009.231,4118.462,4294.359,4227.692,4151.282
1740095401.7564,5103.59,4112.308,4324.103,4226.667,4152.821
1740095401.7644,6744.615,4128.205,4298.974,4223.077,4153.333
1740095401.7722,1587.692,4089.744,4243.59,4180,4112.308
1740095401.7801,3567.179,4110.769,4243.077,4212.821,4146.667
1740095401.7879,7591.795,4177.949,4199.487,4285.641,4222.564
1740095401.7959,3033.846,4252.308,4089.744,4356.41,4301.538
1740095401.8039,2012.308,4364.103,4066.667,4466.154,4413.846
1740095401.8117,7033.846,4390.256,4157.949,4490.769,4430.769
1740095401.8196,4484.103,4267.692,4176.923,4374.872,4312.308
1740095401.8274,1029.744,4283.077,4145.641,4395.385,4338.974
1740095401.8354,6026.667,4446.154,4202.564,4556.923,4495.897
1740095401.8434,6482.051,4433.333,4234.359,4546.154,4474.359
1740095401.8512,1312.821,4298.462,4201.026,4415.897,4340
1740095401.8591,4149.744,4289.744,4188.205,4421.026,4342.564
1740095401.8671,7148.718,4288.205,4194.872,4433.333,4349.744
1740095401.8749,2192.821,4210.256,4174.359,4345.641,4262.564
1740095401.8827,2568.205,4210.256,4201.538,4327.692,4248.205
1740095401.8907,7446.154,4254.872,4216.923,4370.256,4291.795
1740095401.8986,3989.744,4160.513,4243.59,4284.103,4204.103
1740095401.9066,1446.154,4049.231,4310.256,4179.487,4089.231
1740095401.9146,6562.051,4084.615,4341.026,4217.436,4124.103
1740095401.9226,5626.667,4136.923,4269.744,4267.179,4181.026
1740095401.9306,970.256,4113.846,4235.385,4237.436,4155.385
1740095401.9383,4830.769,4115.897,4248.718,4237.949,4149.231
1740095401.9461,6927.179,4121.026,4227.179,4241.026,4150.769
1740095401.9541,1803.077,4066.667,4203.59,4184.103,4101.026
1740095401.9619,3304.615,4066.154,4237.436,4183.077,4103.59
1740095401.9699,7487.179,4096.923,4268.205,4220,4138.462
1740095401.9776,3103.59,4081.026,4261.026,4203.077,4125.128
1740095401.9856,1690.256,4104.103,4281.026,4212.308,4142.051
1740095401.9934,6945.641,4151.282,4289.231,4256.41,4179.487
1740095402.0014,4910.769,4110.769,4271.282,4227.179,4137.949
1740095402.0092,1001.026,4089.231,4248.718,4218.462,4129.231
1740095402.0171,5710.769,4144.615,4246.154,4272.308,4178.462
1740095402.0249,6722.051,4157.436,4222.051,4281.026,4182.564
1740095402.0329,1444.103,4146.667,4206.154,4274.359,4187.179
1740095402.0407,3762.051,4223.59,4166.154,4353.846,4274.872
1740095402.0487,7208.205,4276.923,4170.769,4407.179,4321.026
1740095402.0564,2449.231,4204.103,4266.667,4344.103,4252.821
1740095402.0644,2219.487,4136.41,4380,4277.436,4191.282
1740095402.0722,7435.897,4173.333,4336.923,4303.59,4214.872
1740095402.0802,4535.385,4194.359,4217.436,4333.846,4234.872
1740095402.0882,1255.385,4161.026,4208.205,4322.051,4216.923
1740095402.0961,6143.59,4203.59,4296.923,4361.538,4255.897
1740095402.1039,6006.154,4264.103,4320,4408.205,4302.564
1740095402.1119,1093.333,4241.026,4284.103,4386.154,4283.077
1740095402.1197,4469.744,4213.846,4281.538,4370.256,4267.692
1740095402.1277,7218.462,4208.718,4261.026,4367.179,4263.59
1740095402.1354,2118.974,4145.128,4215.385,4300,4200.513
1740095402.1432,2877.949,4127.692,4190.769,4290.256,4189.231
1740095402.151,7489.231,4180.513,4201.026,4348.718,4241.026
1740095402.1588,3569.231,4176.41,4185.128,4345.128,4235.385
1740095402.1666,1403.077,4182.564,4195.897,4349.744,4241.538
1740095402.1743,6754.872,4264.615,4220.513,4419.487,4311.282
1740095402.1821,5524.103,4264.103,4238.462,4403.077,4298.462
1740095402.1899,1005.128,4182.051,4222.564,4329.744,4225.128
1740095402.1977,5158.974,4178.462,4253.846,4335.385,4226.667
1740095402.2055,6918.974,4210.256,4294.359,4355.897,4248.718
1740095402.2134,1634.872,4208.718,4305.641,4354.359,4251.795
1740095402.2214,3331.282,4244.615,4305.128,4396.41,4293.333
1740095402.2294,7339.487,4249.744,4308.205,4382.564,4279.487
1740095402.2372,2882.051,4165.128,4286.667,4282.564,4183.59
1740095402.245,1920,4168.205,4290.256,4298.462,4200.513
1740095402.2527,7355.897,4253.846,4297.949,4394.872,4292.308
1740095402.2607,5003.077,4247.179,4256.41,4384.103,4273.333
1740095402.2685,1025.641,4225.641,4237.949,4356.923,4245.128
1740095402.2763,5626.667,4286.667,4239.487,4417.949,4311.282
1740095402.2843,6313.846,4260,4216.41,4397.949,4292.308
1740095402.2921,1271.795,4203.59,4195.897,4347.179,4238.462
1740095402.3,4123.077,4258.462,4239.487,4397.436,4285.641
1740095402.3078,7509.744,4295.897,4263.077,4429.744,4317.949
1740095402.3158,2584.615,4290.256,4269.744,4424.103,4315.897
1740095402.3236,2516.923,4368.718,4264.103,4501.026,4394.359
1740095402.3316,7308.718,4408.205,4252.821,4540,4428.205
1740095402.3395,3913.846,4340,4206.154,4474.872,4358.974
1740095402.3475,1124.103,4344.615,4197.949,4480,4368.205
1740095402.3555,6404.103,4389.744,4231.795,4528.718,4420
1740095402.3635,5991.795,4320,4254.872,4462.051,4355.385
1740095402.3715,1134.359,4261.026,4251.795,4393.846,4290.256
1740095402.3794,4701.538,4305.641,4270.769,4423.59,4320
1740095402.3872,7068.718,4303.077,4270.769,4420.513,4312.821
1740095402.3952,1852.308,4229.744,4243.59,4353.333,4243.59
1740095402.403,2916.923,4245.128,4254.872,4366.667,4253.333
1740095402.4109,7497.436,4309.231,4247.692,4423.59,4306.154
1740095402.4188,3442.051,4245.641,4192.821,4364.103,4249.744
1740095402.4266,1462.564,4207.692,4186.667,4336.41,4228.205
1740095402.4344,7007.179,4287.692,4251.795,4407.179,4298.974
1740095402.4424,5686.154,4280,4244.103,4385.641,4277.949
1740095402.4502,943.59,4195.385,4230.256,4315.897,4212.308
1740095402.4579,4957.949,4242.051,4269.231,4377.436,4271.282
1740095402.4657,6841.026,4283.077,4282.564,4402.051,4287.692
1740095402.4735,1630.769,4208.718,4240,4326.667,4208.718
1740095402.4813,3339.487,4225.128,4258.462,4354.872,4241.026
1740095402.4891,7616.41,4293.333,4245.641,4406.667,4295.385
1740095402.4968,3204.103,4239.487,4176.923,4341.538,4229.231
1740095402.5046,1794.872,4224.103,4174.872,4335.897,4226.667
1740095402.5124,6976.41,4313.846,4249.231,4423.077,4324.103
1740095402.5204,4820.513,4303.59,4254.359,4406.154,4312.821
1740095402.5284,939.487,4224.615,4231.795,4335.385,4236.923
1740095402.5363,5702.564,4245.128,4270.256,4357.949,4253.846
1740095402.5443,6681.026,4274.359,4282.564,4378.974,4278.462
1740095402.5521,1478.974,4237.949,4262.564,4348.718,4252.821
1740095402.5599,3915.897,4255.385,4265.641,4375.385,4280
1740095402.5677,7224.615,4264.103,4252.308,4377.436,4277.436
1740095402.5754,2371.282,4225.641,4198.974,4329.231,4222.051
1740095402.5834,2301.538,4261.026,4222.564,4369.744,4256.41
1740095402.5912,7396.923,4331.795,4243.077,4451.795,4333.846
1740095402.5992,4260.513,4298.462,4211.795,4422.051,4301.538
1740095402.607,1230.769,4257.949,4207.179,4381.026,4260.513
1740095402.6149,6381.538,4293.333,4262.051,4414.359,4293.846
1740095402.6229,6108.718,4286.667,4262.564,4406.667,4287.692
1740095402.6309,1076.923,4247.179,4263.077,4363.077,4244.615
1740095402.6389,4420.513,4273.846,4278.974,4386.154,4262.051
1740095402.6469,7054.359,4265.128,4252.821,4386.154,4257.949
1740095402.6548,1965.128,4194.872,4206.667,4331.282,4203.077
1740095402.6628,2884.103,4215.897,4230.256,4358.462,4230.769
1740095402.6706,7579.487,4265.641,4253.846,4399.487,4272.308
1740095402.6786,3651.282,4221.026,4211.282,4344.615,4216.41
1740095402.6864,1433.846,4198.974,4202.051,4316.923,4189.744
1740095402.6943,6644.103,4242.564,4260.513,4360.513,4241.538
1740095402.7021,5333.333,4217.436,4294.359,4343.59,4228.205
1740095402.7101,916.923,4212.308,4286.154,4336.41,4213.846
1740095402.7181,5158.974,4288.718,4299.487,4388.205,4270.769
1740095402.7261,6929.231,4274.359,4274.872,4368.718,4261.026
1740095402.7338,1694.359,4175.385,4246.154,4293.846,4177.436
1740095402.7418,3392.821,4187.692,4243.59,4314.872,4188.205
1740095402.7496,7271.795,4243.077,4259.487,4361.538,4238.462
1740095402.7576,2781.538,4216.41,4225.641,4334.872,4214.359
1740095402.7654,1872.821,4208.205,4222.564,4324.103,4200.513
1740095402.7731,7224.615,4252.308,4249.744,4366.154,4236.41
1740095402.7809,4871.795,4228.718,4255.385,4358.462,4211.795
1740095402.7887,1111.795,4191.795,4242.564,4334.872,4178.462
1740095402.7965,5801.026,4223.59,4260.513,4359.487,4211.282
1740095402.8043,6324.103,4212.821,4261.538,4346.667,4201.026
1740095402.8122,1245.128,4189.231,4263.077,4326.667,4178.974
1740095402.82,4077.949,4263.59,4291.795,4392.821,4246.154
1740095402.8278,7253.333,4281.538,4266.154,4416.41,4269.744
1740095402.8358,2326.154,4165.641,4203.077,4318.462,4172.308
1740095402.8438,2568.205,4181.538,4210.769,4326.667,4181.026
1740095402.8517,7513.846,4288.205,4252.308,4414.872,4267.692
1740095402.8595,4026.667,4248.205,4217.436,4369.231,4229.744
1740095402.8673,1191.795,4213.333,4214.872,4332.821,4202.051
1740095402.8751,6387.692,4302.051,4256.923,4422.051,4286.667
1740095402.8829,5840,4282.051,4263.077,4410.256,4271.282
1740095402.8906,1031.795,4199.487,4228.718,4328.718,4195.385
1740095402.8986,4795.897,4249.231,4254.359,4367.692,4238.462
1740095402.9066,7230.769,4282.051,4258.462,4396.923,4271.282
1740095402.9146,1981.538,4207.179,4227.692,4326.667,4203.077
1740095402.9226,2970.256,4207.692,4212.821,4326.154,4197.949
1740095402.9305,7296.41,4244.103,4226.667,4355.385,4225.128
1740095402.9383,3208.205,4179.487,4209.231,4292.821,4165.641
1740095402.9463,1552.821,4163.59,4216.41,4284.615,4160.513
1740095402.9541,7064.615,4242.564,4261.026,4367.179,4245.641
1740095402.9621,5526.154,4256.41,4280.513,4375.385,4254.359
1740095402.9701,1120,4226.154,4272.821,4340,4215.385
1740095402.978,5296.41,4273.846,4271.282,4398.462,4274.872
1740095402.9858,6652.308,4285.128,4261.538,4422.564,4307.692
1740095402.9938,1435.897,4228.718,4211.795,4364.615,4250.256
1740095403.0016,3538.462,4245.128,4218.974,4379.487,4256.923
1740095403.0096,7532.308,4285.128,4254.872,4414.872,4295.897
1740095403.0173,2906.667,4217.436,4248.205,4342.051,4230.256
1740095403.0253,1981.538,4171.282,4229.744,4303.077,4186.154
1740095403.0331,7243.077,4193.846,4260.513,4325.128,4203.59
1740095403.0411,4728.205,4154.359,4248.718,4277.436,4158.462
1740095403.0491,972.308,4122.564,4240.513,4249.744,4127.179
1740095403.057,5803.077,4205.641,4264.103,4334.359,4205.128
1740095403.0648,6451.282,4224.103,4264.615,4347.179,4220
1740095403.0728,1265.641,4153.846,4224.103,4276.41,4156.41
1740095403.0806,4057.436,4174.359,4233.846,4291.795,4173.846
1740095403.0884,7411.282,4222.564,4235.897,4339.487,4220.513
1740095403.0961,2404.103,4192.821,4201.026,4330.769,4215.897
1740095403.1039,2297.436,4185.641,4204.103,4344.103,4235.385
1740095403.1117,7271.795,4233.846,4248.718,4398.974,4290.256
1740095403.1195,4063.59,4212.308,4261.538,4385.641,4277.436
1740095403.1273,1173.333,4177.436,4251.795,4347.179,4244.615
1740095403.135,6480,4210.769,4269.231,4361.026,4259.487
1740095403.1428,6211.282,4209.744,4244.103,4356.41,4251.795
1740095403.1508,1124.103,4161.026,4211.795,4326.154,4217.436
1740095403.1588,4430.769,4215.897,4217.436,4378.462,4269.231
1740095403.1666,7015.385,4257.436,4227.179,4402.051,4295.897
1740095403.1743,1936.41,4186.154,4187.692,4336.41,4230.769
1740095403.1821,2853.333,4175.385,4202.564,4332.821,4222.564
1740095403.1899,7567.179,4201.026,4229.744,4350.256,4236.923
1740095403.1977,3688.205,4126.154,4207.692,4272.308,4168.205
1740095403.2057,1487.179,4124.103,4190.769,4268.205,4172.308
1740095403.2136,6722.051,4221.538,4242.564,4352.308,4255.897
1740095403.2214,5394.872,4184.103,4255.385,4318.462,4226.667
1740095403.2294,949.744,4130.256,4235.385,4277.436,4196.923
1740095403.2372,5113.846,4212.308,4243.59,4350.769,4270.256
1740095403.2452,6808.205,4236.923,4255.385,4367.179,4278.462
1740095403.2529,1630.769,4177.436,4249.231,4321.026,4229.744
1740095403.2609,3544.615,4205.641,4258.462,4358.974,4268.718
1740095403.2687,7483.077,4249.231,4271.795,4396.41,4308.718
1740095403.2767,2865.641,4221.538,4251.795,4365.128,4279.487
1740095403.2845,1870.769,4235.897,4263.59,4376.923,4287.179
1740095403.2924,7101.538,4282.564,4272.821,4416.923,4320
1740095403.3002,4685.128,4237.949,4257.436,4377.436,4276.923
1740095403.3082,1085.128,4244.103,4251.282,4388.205,4290.256
1740095403.316,5969.231,4347.692,4266.667,4485.641,4390.769
1740095403.324,6502.564,4354.872,4228.205,4494.359,4394.359
1740095403.3317,1292.308,4274.872,4210.769,4423.077,4320
1740095403.3397,4028.718,4295.897,4227.692,4439.487,4345.128
1740095403.3475,7200,4328.718,4233.846,4470.256,4382.051
1740095403.3555,2244.103,4271.282,4195.897,4425.128,4336.41
1740095403.3633,2436.923,4264.615,4197.436,4418.462,4331.282
1740095403.371,7536.41,4312.308,4226.667,4448.205,4361.538
1740095403.3788,4196.923,4301.026,4243.077,4427.692,4341.026
1740095403.3866,1212.308,4290.769,4254.872,4417.436,4331.795
1740095403.3944,6278.974,4326.667,4272.308,4450.256,4362.564
1740095403.4024,5794.872,4298.462,4261.026,4425.641,4330.256
1740095403.4101,1005.128,4236.41,4229.744,4372.308,4275.897
1740095403.4179,4662.564,4244.615,4246.667,4380,4289.231
1740095403.4257,7130.256,4283.59,4252.308,4409.744,4321.538
1740095403.4335,1983.59,4281.538,4242.051,4403.59,4315.385
1740095403.4413,3037.949,4294.359,4248.718,4417.949,4332.821
1740095403.4492,7376.41,4312.821,4245.641,4435.385,4356.41
1740095403.4572,3245.128,4304.103,4203.59,4421.538,4342.564
1740095403.4652,1536.41,4315.385,4223.077,4437.949,4348.718
1740095403.4732,6914.872,4342.051,4229.231,4473.846,4382.564
1740095403.481,5300.513,4308.718,4195.897,4437.436,4353.846
1740095403.4887,1042.051,4286.154,4187.692,4414.872,4331.795
1740095403.4967,5429.744,4336.41,4243.077,4468.205,4377.436
1740095403.5047,6777.436,4350.256,4262.564,4469.744,4378.462
1740095403.5127,1478.974,4316.923,4262.051,4422.564,4337.436
1740095403.5207,3536.41,4346.154,4276.923,4457.436,4374.872
1740095403.5286,7374.359,4374.359,4272.821,4496.41,4412.308
1740095403.5366,2746.667,4294.359,4245.128,4420,4333.846
1740095403.5446,2014.359,4258.462,4234.359,4383.077,4295.897
1740095403.5524,7403.077,4319.487,4232.821,4437.949,4348.718
1740095403.5604,4877.949,4324.615,4212.821,4447.179,4354.359
1740095403.5681,1091.282,4278.462,4215.385,4406.154,4312.821
1740095403.5761,5704.615,4291.795,4206.154,4412.821,4321.026
1740095403.5839,6102.564,4295.897,4187.179,4421.538,4331.795
1740095403.5919,1230.769,4288.205,4192.308,4424.103,4338.462
1740095403.5997,4287.179,4347.179,4251.282,4469.231,4387.692
1740095403.6076,7286.154,4370.769,4265.128,4479.487,4395.385
1740095403.6154,2285.128,4307.179,4246.667,4424.103,4335.897
1740095403.6234,2683.077,4311.282,4223.59,4430.256,4345.128
1740095403.6312,7341.538,4346.154,4229.744,4462.051,4381.538
1740095403.6392,3661.538,4293.333,4233.333,4420,4336.923
1740095403.647,1306.667,4262.051,4249.744,4398.462,4307.692
1740095403.6549,6672.821,4312.821,4264.103,4442.051,4350.256
1740095403.6627,5817.436,4309.744,4257.949,4429.231,4344.615
1740095403.6707,1173.333,4280,4234.359,4400.513,4313.333
1740095403.6785,4945.641,4345.641,4225.641,4465.128,4365.128
1740095403.6865,6806.154,4381.026,4225.128,4489.744,4391.282
1740095403.6942,1606.154,4326.667,4207.692,4434.872,4348.205
1740095403.702,3200,4301.026,4217.949,4420.513,4332.821
1740095403.7098,7507.692,4308.205,4240.513,4421.538,4332.308
1740095403.7178,3210.256,4295.897,4250.256,4389.231,4309.231
1740095403.7256,1786.667,4327.179,4241.538,4414.359,4335.385
1740095403.7333,7120,4343.077,4245.128,4436.41,4353.846
1740095403.7413,5109.744,4287.692,4210.769,4386.154,4306.154
1740095403.7493,964.103,4282.564,4194.359,4377.436,4298.462
1740095403.7573,5425.641,4342.564,4225.641,4428.718,4346.667
1740095403.7653,6523.077,4314.359,4262.051,4393.333,4313.333
1740095403.7732,1407.179,4255.385,4253.333,4337.436,4257.436
1740095403.7812,3885.128,4308.718,4260,4393.333,4311.795
1740095403.7892,7544.615,4360.513,4245.641,4450.769,4369.231
1740095403.797,2728.205,4329.231,4231.795,4427.692,4342.051
1740095403.8048,2188.718,4348.718,4240,4446.667,4357.949
1740095403.8125,7148.718,4382.051,4235.385,4482.564,4396.41
1740095403.8203,4201.026,4313.846,4199.487,4424.615,4340
1740095403.8283,1070.769,4304.615,4196.923,4411.282,4321.538
1740095403.8361,6250.256,4382.564,4239.487,4476.41,4385.128
1740095403.8441,6309.744,4357.949,4256.41,4452.308,4364.103
1740095403.8518,1226.667,4290.256,4261.026,4385.641,4301.538
1740095403.8598,4344.615,4334.872,4269.231,4421.026,4343.59
1740095403.8676,7046.154,4342.051,4282.564,4420,4346.154
1740095403.8754,2010.256,4279.487,4274.872,4360,4287.692
1740095403.8832,2781.538,4314.359,4300,4397.436,4328.718
1740095403.8911,7563.077,4362.564,4293.333,4442.564,4374.359
1740095403.8989,3801.026,4305.128,4259.487,4383.077,4312.821
1740095403.9069,1511.795,4333.333,4264.615,4414.872,4348.718
1740095403.9147,6701.538,4425.128,4283.59,4507.692,4446.154
1740095403.9227,5452.308,4354.359,4216.41,4433.333,4367.692
1740095403.9304,953.846,4274.359,4196.41,4353.333,4282.564
1740095403.9384,5046.154,4357.949,4246.667,4432.821,4360.513
1740095403.9462,6861.538,4364.103,4243.59,4430.256,4363.59
1740095403.9542,1628.718,4253.333,4204.103,4320.513,4256.923
1740095403.962,3405.128,4265.128,4230.769,4337.436,4268.718
1740095403.9699,7614.359,4296.41,4266.667,4372.821,4297.949
1740095403.9777,3089.231,4244.103,4261.538,4319.487,4244.615
1740095403.9857,1702.564,4259.487,4274.872,4326.154,4255.385
1740095403.9937,6960,4320,4283.077,4380,4310.256
1740095404.0017,4890.256,4270.256,4263.59,4336.41,4264.615
1740095404.0094,1023.59,4248.205,4229.744,4314.359,4243.59
1740095404.0172,5729.231,4324.615,4244.103,4381.538,4319.487
1740095404.0252,6678.974,4323.077,4254.872,4386.667,4332.821
1740095404.033,1437.949,4272.308,4266.154,4340.513,4292.308
1740095404.0408,3815.385,4320,4268.205,4377.949,4325.128
1740095404.0487,7148.718,4349.744,4274.359,4407.179,4347.179
1740095404.0565,2358.974,4316.923,4264.615,4382.051,4326.667
1740095404.0645,2301.538,4354.359,4265.128,4420.513,4367.692
1740095404.0725,7493.333,4417.436,4254.872,4486.667,4429.744
1740095404.0805,4420.513,4399.487,4251.282,4469.744,4417.949
1740095404.0884,1185.641,4402.051,4270.769,4465.128,4424.615
1740095404.0964,6207.179,4458.462,4298.974,4523.59,4484.103
1740095404.1044,6073.846,4419.487,4286.667,4500,4454.872
1740095404.1122,1087.179,4371.282,4266.154,4452.821,4407.692
1740095404.12,4428.718,4432.821,4269.231,4496.923,4454.872
1740095404.1279,7263.59,4439.487,4261.026,4491.282,4452.821
1740095404.1357,2176.41,4354.872,4264.615,4411.795,4371.795
1740095404.1437,2836.923,4394.359,4288.718,4451.795,4406.667
1740095404.1515,7522.051,4456.923,4286.667,4507.179,4463.077
1740095404.1595,3680,4375.385,4221.026,4427.179,4388.205
1740095404.1672,1335.385,4332.821,4225.128,4388.718,4346.667
1740095404.1752,6650.256,4412.821,4274.359,4460,4411.795
1740095404.183,5595.897,4412.308,4285.128,4449.744,4409.231
1740095404.191,994.872,4358.462,4264.615,4401.538,4368.205
1740095404.1988,5046.154,4375.897,4289.231,4424.103,4382.051
1740095404.2067,6998.974,4380,4282.051,4422.051,4373.846
1740095404.2147,1712.821,4359.487,4267.692,4398.974,4355.897
1740095404.2227,3193.846,4422.051,4277.436,4465.128,4425.641
1740095404.2305,7273.846,4457.436,4268.718,4504.103,4462.564
1740095404.2385,2943.59,4368.718,4236.41,4423.077,4374.872
1740095404.2462,1798.974,4366.154,4271.282,4424.103,4370.769
1740095404.2542,7236.923,4478.974,4323.59,4527.692,4478.974
1740095404.262,5126.154,4481.026,4310.256,4522.051,4477.949
1740095404.27,1040,4420,4284.103,4463.59,4415.385
1740095404.2778,5532.308,4487.692,4283.59,4536.923,4487.179
1740095404.2857,6447.179,4564.103,4302.051,4611.795,4567.692
1740095404.2937,1325.128,4539.487,4304.103,4576.41,4537.949
1740095404.3017,3891.282,4531.795,4328.718,4567.692,4530.256
1740095404.3097,7532.308,4566.667,4307.179,4624.615,4580
1740095404.3177,2685.128,4543.59,4252.821,4611.282,4560
1740095404.3254,2209.231,4548.205,4267.692,4598.974,4550.769
1740095404.3332,7329.231,4598.462,4339.487,4641.538,4594.872
1740095404.341,4375.385,4584.103,4302.564,4635.897,4579.487
1740095404.3488,1015.385,4568.205,4263.077,4613.333,4557.436
1740095404.3566,6067.692,4608.718,4307.692,4640,4599.487
1740095404.3643,6246.154,4601.026,4333.333,4644.103,4601.538
1740095404.3721,1214.359,4577.436,4294.872,4635.385,4576.923
1740095404.3801,4408.205,4632.821,4293.846,4684.103,4626.667
1740095404.3881,7296.41,4644.615,4293.333,4692.821,4643.077
1740095404.3961,2153.846,4587.179,4275.385,4649.744,4597.436
1740095404.4041,2625.641,4601.026,4294.872,4667.692,4616.923
1740095404.4118,7333.333,4646.667,4314.872,4697.949,4650.256
1740095404.4196,3661.538,4584.103,4290.769,4644.103,4589.744
1740095404.4276,1401.026,4542.564,4266.154,4632.821,4573.846
1740095404.4356,6828.718,4624.615,4302.051,4706.667,4651.795
1740095404.4436,5827.692,4646.154,4307.692,4697.436,4646.154
1740095404.4515,1009.231,4574.359,4305.641,4624.615,4574.872
1740095404.4595,4816.41,4592.821,4304.103,4656.923,4604.615
1740095404.4673,6851.282,4618.462,4284.615,4682.051,4627.179
1740095404.4753,1696.41,4569.744,4239.487,4632.308,4578.974
1740095404.4831,3241.026,4583.59,4256.923,4647.692,4598.462
1740095404.4908,7593.846,4629.744,4292.821,4683.59,4635.897
1740095404.4986,3288.205,4574.872,4310.256,4618.974,4567.179
1740095404.5066,1729.231,4541.026,4302.051,4595.385,4538.462
1740095404.5144,6939.487,4583.59,4285.641,4644.615,4586.667
1740095404.5224,4935.385,4548.205,4256.923,4599.487,4546.667
1740095404.5301,935.385,4482.564,4255.897,4534.359,4483.077
1740095404.5381,5552.821,4488.718,4275.385,4547.692,4491.795
1740095404.5459,6629.744,4473.333,4277.436,4526.667,4470.256
1740095404.5539,1489.231,4422.051,4264.103,4475.897,4422.051
1740095404.5619,3911.795,4461.538,4255.897,4526.154,4471.795
1740095404.5698,7263.59,4495.897,4272.308,4560,4504.103
1740095404.5778,2383.59,4441.538,4282.051,4495.385,4443.077
1740095404.5858,2250.256,4450.769,4293.846,4500.513,4449.231
1740095404.5936,7339.487,4534.359,4264.103,4585.128,4529.231
1740095404.6016,4242.051,4513.846,4227.692,4573.333,4514.872
1740095404.6093,1255.385,4473.846,4223.59,4540,4486.154
1740095404.6171,6404.103,4509.231,4267.692,4568.205,4516.923
1740095404.6249,6077.949,4478.974,4273.846,4537.949,4479.487
1740095404.6327,1056.41,4389.744,4262.051,4458.462,4398.462
1740095404.6407,4443.077,4414.359,4265.641,4480.513,4425.641
1740095404.6484,7052.308,4457.436,4275.385,4516.41,4463.077
1740095404.6562,1928.205,4423.59,4250.769,4482.564,4427.692
1740095404.664,2865.641,4449.744,4243.077,4501.538,4446.154
1740095404.6718,7636.923,4472.308,4243.077,4518.974,4465.128
1740095404.6796,3700.513,4394.872,4227.179,4448.718,4395.897
1740095404.6873,1364.103,4370.769,4238.462,4426.154,4370.769
1740095404.6951,6557.949,4410.256,4263.077,4456.41,4402.564
1740095404.7029,5331.282,4375.897,4271.282,4420,4373.333
1740095404.7107,945.641,4370.769,4280.513,4417.949,4372.308
1740095404.7185,5136.41,4441.538,4295.897,4486.667,4434.359
1740095404.7262,6880,4447.179,4254.359,4490.769,4438.974
1740095404.7342,1737.436,4405.641,4229.231,4457.436,4409.744
1740095404.742,3520,4437.436,4231.282,4497.436,4446.154
1740095404.7498,7288.205,4439.487,4226.667,4490.256,4437.436
1740095404.7578,2724.103,4355.897,4198.462,4400.513,4348.718
1740095404.7657,1917.949,4313.846,4207.692,4358.462,4306.667
1740095404.7737,7273.846,4322.051,4211.282,4357.949,4309.231
1740095404.7815,4859.487,4263.59,4203.077,4285.641,4245.641
1740095404.7895,1132.308,4214.359,4193.333,4237.436,4196.923
1740095404.7975,5850.256,4242.051,4206.154,4280.513,4232.821
1740095404.8054,6348.718,4185.641,4192.308,4234.359,4187.179
1740095404.8134,1228.718,4109.744,4188.205,4163.077,4120.513
1740095404.8214,4067.692,4198.974,4228.718,4245.641,4211.282
1740095404.8292,7337.436,4271.795,4232.821,4297.949,4269.744
1740095404.8372,2358.974,4168.718,4196.923,4186.154,4161.538
1740095404.8449,2469.744,4135.385,4204.615,4160.513,4136.41
1740095404.8529,7542.564,4207.692,4214.359,4236.41,4212.308
1740095404.8609,4166.154,4182.051,4172.821,4207.692,4186.667
1740095404.8689,1124.103,4130.769,4189.744,4156.41,4138.974
1740095404.8767,6221.538,4172.308,4223.077,4200,4183.077
1740095404.8846,5835.897,4159.487,4210.256,4193.846,4175.385
1740095404.8924,1054.359,4088.718,4196.41,4122.564,4102.564
1740095404.9004,4726.154,4105.128,4246.154,4122.051,4102.051
1740095404.9082,7238.974,4124.615,4248.718,4143.59,4127.692
1740095404.916,2012.308,4050.256,4219.487,4082.564,4070.256
1740095404.9237,2914.872,4046.667,4223.59,4072.821,4055.897
1740095404.9317,7331.282,4120.513,4248.205,4134.872,4111.282
1740095404.9395,3323.077,4097.949,4212.308,4118.462,4086.667
1740095404.9475,1472.821,4049.231,4178.974,4077.436,4042.051
1740095404.9553,6953.846,4060,4175.385,4091.282,4054.872
1740095404.963,5602.051,4033.846,4177.949,4066.667,4027.692
1740095404.9708,1044.103,4003.077,4201.026,4024.615,3985.641
1740095404.9786,5142.564,4035.897,4229.231,4043.59,4008.205
1740095404.9864,6836.923,4023.077,4233.846,4034.359,3996.41
1740095404.9944,1618.462,4001.538,4230.256,4025.128,3983.077
1740095405.0023,3360,4060.513,4254.872,4080,4042.051
1740095405.0101,7431.795,4073.846,4239.487,4080.513,4048.718
1740095405.0179,3019.487,3994.359,4193.846,4003.077,3970.256
1740095405.0257,1932.308,3993.333,4162.564,4008.718,3970.256
1740095405.0335,7216.41,4036.41,4173.846,4043.59,4004.103
1740095405.0413,4880,3980,4159.487,3977.949,3941.538
1740095405.049,931.282,3923.077,4170.769,3920,3885.128
1740095405.057,5591.795,3963.077,4202.564,3958.462,3922.564
1740095405.065,6406.154,3948.205,4211.282,3942.564,3906.154
1740095405.073,1277.949,3882.051,4192.821,3881.538,3848.718
1740095405.081,3995.897,3917.949,4196.41,3921.026,3890.769
1740095405.0889,7474.872,3948.718,4171.282,3954.872,3922.564
1740095405.0969,2512.821,3918.974,4168.205,3924.103,3890.769
1740095405.1047,2262.564,3974.872,4223.59,3973.846,3939.487
1740095405.1125,7267.692,4045.128,4246.154,4046.667,4008.205
1740095405.1205,4123.077,3982.051,4209.744,3984.615,3949.744
1740095405.1284,1099.487,3943.59,4199.487,3934.872,3906.667
1740095405.1364,6354.872,3989.744,4231.282,3985.128,3954.359
1740095405.1444,6221.538,3960.513,4206.154,3972.821,3944.103
1740095405.1524,1177.436,3901.538,4173.846,3913.333,3890.769
1740095405.1602,4445.128,3966.667,4185.641,3972.308,3942.051
1740095405.1681,7070.769,4009.231,4211.282,4024.103,3984.615
1740095405.1759,1944.615,3953.846,4192.821,3972.821,3941.538
1740095405.1839,2779.487,3972.308,4221.026,3978.462,3954.872
1740095405.1917,7628.718,4041.026,4251.795,4037.436,4013.846
1740095405.1997,3854.359,4000.513,4219.487,4001.538,3978.974
1740095405.2074,1435.897,3983.077,4167.179,3986.667,3962.564
1740095405.2154,6615.385,4053.846,4176.41,4049.231,4020.513
1740095405.2232,5520,4034.359,4171.795,4028.718,4003.077
1740095405.2312,900.513,3981.026,4178.462,3976.923,3957.949
1740095405.239,4884.103,4036.41,4221.026,4023.59,4001.026
1740095405.2469,6962.051,4082.051,4231.795,4069.744,4036.923
1740095405.2547,1770.256,4038.974,4209.231,4048.205,4012.821
1740095405.2627,3288.205,4029.231,4216.41,4053.333,4025.128
1740095405.2705,7577.436,4033.846,4223.077,4066.154,4041.538
1740095405.2785,3220.513,4004.615,4199.487,4055.897,4034.872
1740095405.2862,1628.718,4003.59,4211.282,4075.897,4062.564
1740095405.294,6910.769,4018.974,4225.128,4111.282,4096.41
1740095405.3018,5046.154,3981.538,4226.154,4087.692,4066.154
1740095405.3096,951.795,3969.744,4213.846,4071.795,4049.744
1740095405.3174,5534.359,4009.231,4224.615,4085.128,4067.692
1740095405.3251,6761.026,3991.282,4208.718,4052.308,4033.333
1740095405.3329,1458.462,3960.513,4190.256,4018.462,3998.462
1740095405.3407,3602.051,4032.308,4205.128,4073.846,4057.949
1740095405.3485,7265.641,4073.846,4232.821,4096.923,4086.667
1740095405.3565,2584.615,4010.769,4184.103,4033.333,4019.487
1740095405.3644,2090.256,3997.949,4161.538,4016.41,3998.974
1740095405.3724,7440,4032.308,4187.692,4041.538,4025.128
1740095405.3804,4765.128,4000.513,4189.231,4015.385,3997.436
1740095405.3884,1210.256,4003.077,4183.077,4017.949,3997.949
1740095405.3964,5958.974,4083.077,4203.077,4085.641,4065.641
1740095405.4043,6123.077,4070.769,4184.615,4081.538,4063.59
1740095405.4123,1171.282,4034.359,4169.744,4056.923,4041.538
1740095405.4203,4344.615,4116.41,4215.897,4132.308,4117.436
1740095405.4281,7364.103,4177.436,4206.667,4183.077,4172.308
1740095405.4361,2283.077,4107.692,4169.231,4118.462,4109.744
1740095405.4438,2642.051,4094.872,4176.923,4111.282,4099.487
1740095405.4518,7437.949,4167.692,4200.513,4176.923,4163.59
1740095405.4596,3786.667,4145.641,4177.436,4152.308,4138.974
1740095405.4676,1181.538,4066.667,4194.359,4082.051,4061.538
1740095405.4754,6443.077,4070.256,4216.41,4096.41,4071.282
1740095405.4833,5751.795,4067.179,4204.615,4091.282,4073.846
1740095405.4911,1087.179,4010.256,4187.692,4030.256,4015.385
1740095405.4991,4949.744,4006.154,4221.538,4027.692,4003.077
1740095405.5069,7140.513,4020.513,4219.487,4034.359,4008.205
