timestamp,t7,t8,pz,af3,af4
1740095734.7632,4231.795,4085.641,4212.821,4097.949,4211.282
1740095734.771,4264.615,4116.41,4230.256,4126.154,4218.974
1740095734.7787,4250.256,4148.718,4240.513,4153.333,4258.974
1740095734.7867,4262.564,4165.641,4227.692,4158.974,4275.385
1740095734.7947,4270.769,4150.256,4234.872,4149.744,4249.231
1740095734.8027,4237.949,4126.667,4234.359,4145.641,4247.692
1740095734.8107,4221.538,4106.154,4227.179,4130.769,4248.718
1740095734.8184,4209.231,4070.769,4223.077,4094.359,4202.051
1740095734.8262,4168.205,4044.103,4214.872,4066.154,4168.718
1740095734.834,4170.256,4052.821,4187.692,4060.513,4184.615
1740095734.8418,4221.538,4056.923,4174.359,4057.436,4174.872
1740095734.8498,4246.154,4045.641,4165.128,4055.897,4144.615
1740095734.8576,4254.359,4065.641,4149.231,4068.718,4171.795
1740095734.8655,4252.308,4087.179,4146.154,4083.59,4203.59
1740095734.8733,4242.051,4087.692,4146.667,4096.923,4186.667
1740095734.8813,4235.897,4090.769,4157.436,4105.641,4182.564
1740095734.8891,4242.051,4094.872,4165.641,4105.641,4216.923
1740095734.8971,4233.846,4084.103,4176.41,4086.667,4205.128
1740095734.9048,4227.692,4090.256,4165.641,4091.282,4182.564
1740095734.9128,4231.795,4102.051,4161.538,4115.385,4213.333
1740095734.9206,4237.949,4093.846,4150.769,4114.359,4228.718
1740095734.9286,4237.949,4082.564,4146.154,4102.051,4195.897
1740095734.9364,4229.744,4084.615,4140.513,4112.308,4190.769
1740095734.9443,4215.385,4095.897,4152.308,4120,4213.333
1740095734.9521,4213.333,4120,4159.487,4129.744,4228.205
1740095734.9601,4240,4140,4178.462,4144.615,4256.923
1740095734.9679,4248.205,4137.436,4209.744,4131.795,4260
1740095734.9759,4254.359,4132.821,4244.103,4130.256,4225.128
1740095734.9836,4272.821,4133.846,4254.872,4154.872,4216.41
1740095734.9916,4250.256,4121.026,4252.821,4138.974,4214.872
1740095734.9994,4211.282,4106.667,4247.179,4110.256,4192.821
1740095735.0074,4244.103,4113.846,4223.077,4133.333,4208.718
1740095735.0154,4246.154,4113.333,4192.308,4148.205,4238.462
1740095735.0231,4201.026,4101.538,4176.41,4130.769,4228.205
1740095735.0311,4217.436,4109.231,4173.333,4136.923,4221.538
1740095735.0391,4254.359,4136.41,4157.436,4161.026,4247.179
1740095735.0471,4240,4137.949,4180,4153.333,4253.846
1740095735.0551,4244.103,4135.897,4218.974,4151.795,4257.436
1740095735.063,4276.923,4149.231,4242.051,4173.333,4265.641
1740095735.0708,4278.974,4158.974,4242.051,4189.744,4275.385
1740095735.0786,4233.846,4142.564,4237.436,4184.615,4271.282
1740095735.0864,4188.718,4111.282,4196.923,4161.026,4230.256
1740095735.0942,4184.615,4102.564,4179.487,4140.513,4217.436
1740095735.1021,4178.462,4127.179,4174.359,4147.692,4267.692
1740095735.1101,4149.744,4147.692,4152.821,4160.513,4273.846
1740095735.1179,4184.615,4153.846,4147.179,4160.513,4241.026
1740095735.1259,4278.974,4171.795,4182.564,4169.231,4261.026
1740095735.1337,4344.615,4185.641,4206.667,4181.538,4276.923
1740095735.1414,4354.872,4178.462,4214.872,4177.436,4248.718
1740095735.1492,4342.564,4163.59,4233.333,4170.769,4238.974
1740095735.157,4338.462,4157.949,4233.333,4177.436,4250.769
1740095735.165,4311.795,4152.821,4215.385,4180.513,4237.436
1740095735.1728,4274.872,4154.872,4212.308,4179.487,4233.846
1740095735.1807,4270.769,4162.564,4225.641,4167.692,4238.974
1740095735.1887,4303.59,4174.872,4195.897,4171.795,4252.308
1740095735.1967,4340.513,4190.256,4172.308,4198.974,4278.974
1740095735.2045,4346.667,4211.795,4191.282,4221.026,4298.974
1740095735.2125,4287.179,4206.154,4231.282,4206.154,4292.308
1740095735.2202,4209.231,4172.821,4236.923,4174.872,4263.077
1740095735.2282,4219.487,4156.923,4241.026,4158.974,4240
1740095735.236,4276.923,4154.872,4236.41,4158.462,4244.615
1740095735.244,4295.385,4135.385,4230.769,4158.462,4256.923
1740095735.2518,4289.231,4118.462,4214.359,4145.641,4236.923
1740095735.2597,4276.923,4118.974,4188.718,4129.231,4209.744
1740095735.2677,4260.513,4130.769,4158.462,4130.769,4212.821
1740095735.2757,4264.615,4149.231,4141.026,4148.205,4231.795
1740095735.2837,4270.769,4160.513,4133.333,4161.538,4260
1740095735.2917,4252.308,4166.154,4145.641,4171.282,4274.359
1740095735.2994,4233.846,4166.154,4182.564,4173.846,4257.949
1740095735.3072,4240,4162.051,4214.359,4167.692,4254.359
1740095735.3152,4248.205,4164.103,4240.513,4164.615,4250.769
1740095735.3232,4274.872,4172.821,4248.718,4175.385,4243.077
1740095735.331,4295.385,4160.513,4233.846,4178.462,4268.718
1740095735.3389,4256.41,4138.974,4194.359,4163.59,4283.077
1740095735.3467,4211.282,4131.282,4195.385,4138.462,4234.359
1740095735.3545,4244.103,4143.59,4196.41,4116.923,4221.026
1740095735.3623,4283.077,4158.462,4184.615,4106.667,4246.667
1740095735.3701,4295.385,4169.231,4177.949,4121.026,4235.897
1740095735.3778,4301.538,4186.667,4203.077,4148.205,4238.974
1740095735.3856,4283.077,4205.128,4210.769,4169.744,4276.923
1740095735.3934,4235.897,4194.359,4211.282,4174.359,4273.846
1740095735.4014,4237.949,4168.718,4213.846,4171.795,4246.667
1740095735.4094,4278.974,4166.154,4207.692,4169.744,4256.923
1740095735.4173,4301.538,4179.487,4208.205,4172.308,4277.436
1740095735.4253,4328.205,4194.359,4226.154,4180.513,4287.179
1740095735.4333,4326.154,4191.795,4231.282,4167.692,4280.513
1740095735.4413,4264.615,4169.231,4230.256,4141.026,4239.487
1740095735.4491,4198.974,4150.256,4248.205,4130.256,4187.692
1740095735.4568,4182.564,4154.359,4250.769,4141.538,4197.949
1740095735.4648,4188.718,4147.692,4257.436,4143.077,4241.538
1740095735.4728,4196.923,4133.333,4270.256,4134.872,4242.564
1740095735.4808,4213.333,4135.385,4273.846,4128.205,4213.333
1740095735.4886,4240,4155.385,4263.59,4134.872,4224.615
1740095735.4965,4276.923,4167.179,4273.333,4144.103,4255.897
1740095735.5043,4274.872,4156.41,4264.103,4132.821,4246.154
1740095735.5123,4248.205,4139.487,4255.385,4109.231,4211.282
1740095735.5203,4256.41,4150.256,4251.795,4121.026,4218.462
1740095735.5283,4281.026,4176.923,4250.256,4154.872,4254.359
1740095735.536,4281.026,4189.231,4232.821,4166.154,4263.077
1740095735.544,4293.333,4195.385,4229.231,4165.641,4262.564
1740095735.5518,4311.795,4194.359,4234.872,4170.256,4275.897
1740095735.5598,4301.538,4181.538,4239.487,4167.692,4271.795
1740095735.5676,4307.692,4172.308,4237.436,4154.872,4242.051
1740095735.5756,4358.974,4178.974,4229.231,4163.59,4239.487
1740095735.5833,4387.692,4183.59,4228.718,4189.744,4271.795
1740095735.5911,4367.179,4183.077,4234.359,4200.513,4286.667
1740095735.5989,4334.359,4176.923,4231.282,4175.897,4260
1740095735.6069,4309.744,4167.179,4209.744,4150.256,4237.436
1740095735.6147,4297.436,4149.744,4218.462,4143.59,4238.462
1740095735.6224,4320,4142.564,4226.667,4153.333,4241.538
1740095735.6302,4326.154,4151.795,4229.231,4155.385,4226.154
1740095735.638,4330.256,4169.744,4231.282,4154.359,4224.103
1740095735.6458,4348.718,4165.641,4235.385,4153.333,4236.923
1740095735.6536,4350.769,4158.974,4217.436,4161.026,4255.897
1740095735.6613,4346.667,4168.205,4226.667,4170.256,4270.256
1740095735.6691,4361.026,4165.641,4229.231,4161.026,4254.872
1740095735.6769,4350.769,4142.564,4212.821,4147.692,4225.641
1740095735.6847,4320,4140.513,4205.641,4161.538,4235.897
1740095735.6925,4330.256,4163.077,4216.41,4186.154,4270.769
1740095735.7002,4338.462,4163.077,4215.897,4185.641,4272.308
1740095735.708,4317.949,4156.41,4218.462,4185.128,4269.744
1740095735.716,4320,4166.667,4238.462,4197.949,4281.026
1740095735.724,4352.821,4183.59,4261.538,4205.128,4276.923
1740095735.7318,4361.026,4192.308,4275.385,4206.154,4271.795
1740095735.7397,4346.667,4187.179,4257.436,4212.821,4283.077
1740095735.7475,4340.513,4173.333,4236.41,4213.846,4282.051
1740095735.7553,4342.564,4169.231,4223.59,4211.282,4276.923
1740095735.7631,4356.923,4157.949,4208.718,4198.462,4265.128
1740095735.7709,4391.795,4142.564,4168.205,4187.179,4247.179
1740095735.7788,4416.41,4146.667,4150.769,4190.256,4246.154
1740095735.7866,4391.795,4161.538,4137.949,4197.949,4251.795
1740095735.7946,4365.128,4165.128,4138.462,4195.897,4252.821
1740095735.8024,4375.385,4169.231,4143.59,4201.538,4274.359
1740095735.8104,4387.692,4160,4173.333,4206.154,4280
1740095735.8181,4379.487,4142.051,4197.949,4205.128,4244.103
1740095735.8261,4379.487,4146.667,4218.462,4217.949,4237.436
1740095735.8341,4395.897,4143.59,4238.462,4225.128,4271.282
1740095735.8421,4395.897,4115.385,4253.846,4210.256,4272.821
1740095735.8501,4365.128,4102.564,4243.077,4198.974,4240.513
1740095735.858,4330.256,4103.59,4220.513,4196.41,4226.667
1740095735.866,4340.513,4084.615,4216.923,4186.154,4231.282
1740095735.874,4379.487,4071.795,4203.077,4188.718,4235.385
1740095735.8818,4363.077,4072.821,4168.718,4185.128,4216.41
1740095735.8898,4350.769,4091.795,4144.615,4180.513,4217.949
1740095735.8975,4406.154,4116.41,4153.846,4203.59,4249.744
1740095735.9055,4441.026,4122.564,4159.487,4236.41,4265.128
1740095735.9133,4395.897,4121.026,4184.103,4243.077,4261.026
1740095735.9211,4377.436,4133.846,4221.026,4237.949,4261.026
1740095735.9289,4383.59,4120.513,4251.282,4222.051,4243.077
1740095735.9368,4369.231,4090.256,4245.128,4204.103,4223.59
1740095735.9446,4383.59,4085.641,4241.538,4202.051,4223.077
1740095735.9526,4432.821,4085.128,4237.436,4202.051,4214.359
1740095735.9606,4424.615,4080.513,4227.692,4198.462,4210.256
1740095735.9686,4365.128,4085.641,4199.487,4196.41,4225.641
1740095735.9765,4346.667,4088.205,4183.077,4193.333,4233.333
1740095735.9845,4383.59,4091.282,4188.205,4198.974,4244.103
1740095735.9923,4422.564,4102.051,4194.872,4207.692,4252.308
1740095736.0001,4412.308,4109.231,4186.667,4208.718,4244.615
1740095736.0079,4393.846,4116.923,4180.513,4212.821,4242.051
1740095736.0156,4418.462,4112.821,4183.077,4208.205,4227.179
1740095736.0234,4445.128,4098.974,4177.949,4198.974,4217.949
1740095736.0314,4438.974,4094.872,4195.897,4204.103,4241.538
1740095736.0394,4441.026,4109.231,4208.205,4213.333,4247.692
1740095736.0472,4471.795,4117.949,4205.641,4197.949,4219.487
1740095736.0549,4504.615,4119.487,4201.026,4187.692,4229.231
1740095736.0627,4504.615,4110.769,4216.923,4189.744,4249.744
1740095736.0705,4490.256,4103.077,4216.923,4196.41,4231.795
1740095736.0783,4490.256,4111.282,4236.41,4212.308,4213.333
1740095736.0861,4533.333,4131.795,4246.667,4237.949,4241.026
1740095736.094,4557.949,4135.897,4236.41,4244.615,4277.436
1740095736.1018,4514.872,4112.821,4234.872,4230.256,4267.179
1740095736.1098,4482.051,4087.179,4246.667,4208.718,4215.385
1740095736.1176,4500.513,4070.769,4215.385,4184.615,4173.846
1740095736.1256,4514.872,4066.667,4195.385,4181.538,4188.205
1740095736.1333,4492.308,4075.385,4211.282,4198.974,4217.949
1740095736.1413,4480,4087.692,4210.769,4200.513,4202.564
1740095736.1493,4502.564,4093.846,4203.59,4190.769,4185.128
1740095736.1573,4527.179,4102.564,4210.769,4198.462,4222.564
1740095736.1651,4496.41,4106.154,4218.462,4202.564,4244.103
1740095736.173,4467.692,4110.256,4211.795,4210.256,4230.769
1740095736.1808,4469.744,4113.846,4215.897,4201.026,4223.59
1740095736.1888,4453.333,4111.795,4196.41,4177.436,4226.154
1740095736.1968,4430.769,4115.897,4186.667,4214.872,4248.718
1740095736.2048,4473.846,4138.462,4212.821,4304.615,4297.436
1740095736.2126,4490.256,4133.846,4245.128,4317.949,4295.897
1740095736.2205,4420.513,4091.795,4227.692,4267.692,4243.59
1740095736.2283,4404.103,4068.718,4229.744,4249.744,4220
1740095736.2363,4447.179,4080.513,4254.872,4254.872,4232.308
1740095736.2443,4426.667,4075.385,4268.718,4235.385,4232.308
1740095736.2523,4375.385,4051.282,4253.846,4202.051,4206.154
1740095736.26,4383.59,4048.718,4254.359,4184.103,4190.256
1740095736.2678,4434.872,4067.692,4264.615,4196.923,4214.359
1740095736.2758,4455.385,4090.769,4269.231,4221.026,4241.026
1740095736.2836,4422.564,4097.436,4253.333,4225.641,4229.744
1740095736.2914,4404.103,4085.641,4225.128,4222.051,4219.487
1740095736.2993,4443.077,4083.59,4225.641,4235.385,4232.821
1740095736.3073,4461.538,4096.923,4244.103,4257.949,4239.487
1740095736.3153,4414.359,4086.667,4245.128,4253.333,4228.205
1740095736.3233,4400,4074.872,4218.974,4238.462,4214.872
1740095736.3313,4436.923,4089.744,4216.41,4244.615,4210.769
1740095736.3392,4449.231,4106.667,4211.795,4265.641,4237.949
1740095736.3472,4406.154,4094.359,4197.436,4262.564,4252.308
1740095736.3552,4389.744,4089.744,4177.949,4246.667,4233.846
1740095736.363,4428.718,4102.051,4191.282,4248.718,4230.769
1740095736.3708,4432.821,4107.692,4218.974,4258.974,4246.667
1740095736.3787,4383.59,4109.231,4252.308,4257.436,4243.59
1740095736.3867,4379.487,4114.872,4258.974,4257.949,4245.641
1740095736.3947,4424.615,4100,4262.051,4251.795,4254.872
1740095736.4027,4430.769,4082.051,4273.333,4250.769,4255.897
1740095736.4107,4436.923,4108.205,4277.436,4301.026,4286.667
1740095736.4186,4465.641,4139.487,4263.077,4360.513,4336.41
1740095736.4266,4498.462,4146.154,4243.59,4396.923,4366.667
1740095736.4344,4518.974,4153.846,4206.154,4445.128,4395.897
1740095736.4424,4496.41,4166.667,4176.923,4496.923,4437.949
1740095736.4502,4432.821,4161.538,4208.718,4512.308,4455.897
1740095736.4581,4426.667,4144.103,4248.718,4508.718,4449.744
1740095736.4661,4447.179,4111.282,4249.744,4488.205,4426.154
1740095736.4741,4412.308,4079.487,4230.769,4458.974,4395.385
1740095736.4821,4373.333,4066.667,4231.795,4424.103,4367.179
1740095736.4901,4369.231,4062.564,4198.974,4378.974,4344.103
1740095736.498,4373.333,4057.949,4173.333,4342.051,4322.564
1740095736.506,4389.744,4068.205,4192.821,4334.872,4308.205
1740095736.5138,4414.359,4078.462,4235.385,4320,4285.641
1740095736.5217,4402.051,4076.41,4247.179,4284.103,4265.128
1740095736.5295,4361.026,4069.744,4258.974,4254.359,4247.179
1740095736.5374,4350.769,4073.846,4259.487,4247.692,4232.308
1740095736.5454,4387.692,4085.128,4247.179,4249.231,4230.256
1740095736.5534,4420.513,4092.821,4235.385,4240.513,4228.718
1740095736.5614,4428.718,4103.077,4236.41,4241.538,4231.282
1740095736.5694,4408.205,4114.872,4228.205,4249.744,4241.026
1740095736.5771,4379.487,4126.154,4220,4247.692,4253.333
1740095736.5849,4389.744,4129.744,4224.615,4244.615,4249.231
1740095736.5927,4426.667,4128.718,4221.026,4247.692,4240.513
1740095736.6005,4406.154,4123.59,4220.513,4237.436,4236.923
1740095736.6083,4352.821,4117.949,4225.128,4222.564,4227.179
1740095736.616,4326.154,4107.692,4237.436,4213.846,4209.231
1740095736.6238,4342.564,4104.103,4224.103,4210.769,4203.59
1740095736.6316,4361.026,4115.385,4211.282,4211.282,4205.641
1740095736.6394,4356.923,4129.231,4190.256,4216.41,4210.256
1740095736.6474,4332.308,4129.231,4187.179,4214.359,4220
1740095736.6553,4348.718,4148.718,4204.103,4227.692,4253.846
1740095736.6631,4383.59,4173.333,4226.667,4238.462,4275.385
1740095736.6711,4373.333,4160,4227.179,4215.385,4250.769
1740095736.6791,4373.333,4146.154,4245.641,4198.462,4227.692
1740095736.6869,4418.462,4169.744,4258.974,4218.462,4246.154
1740095736.6946,4434.872,4177.436,4258.974,4228.205,4257.949
1740095736.7024,4400,4140.513,4250.769,4202.564,4228.205
1740095736.7104,4391.795,4126.154,4242.051,4194.872,4223.59
1740095736.7184,4391.795,4144.103,4233.846,4209.744,4242.564
1740095736.7264,4387.692,4154.872,4233.333,4215.897,4240.513
1740095736.7341,4397.949,4162.051,4233.333,4213.846,4235.897
1740095736.7421,4391.795,4177.949,4210.769,4222.051,4241.026
1740095736.7499,4369.231,4178.462,4208.205,4226.667,4235.385
1740095736.7579,4395.897,4183.077,4221.026,4241.026,4250.769
1740095736.7659,4426.667,4192.308,4228.205,4265.128,4287.692
1740095736.7738,4385.641,4181.026,4216.41,4261.026,4288.205
1740095736.7816,4307.692,4155.385,4229.231,4229.744,4253.333
1740095736.7896,4289.231,4131.795,4224.103,4215.385,4240.513
1740095736.7974,4313.846,4106.154,4195.897,4203.59,4234.872
1740095736.8054,4326.154,4103.077,4176.41,4185.641,4218.462
1740095736.8131,4324.103,4113.846,4185.128,4179.487,4208.205
1740095736.8209,4352.821,4128.205,4180.513,4197.949,4217.436
1740095736.8287,4410.256,4160,4196.41,4233.333,4239.487
1740095736.8365,4406.154,4183.59,4232.821,4262.051,4265.128
1740095736.8443,4342.564,4183.077,4264.615,4266.667,4286.154
1740095736.8521,4326.154,4183.077,4286.154,4258.462,4287.692
1740095736.8598,4344.615,4171.282,4300,4247.179,4270.769
1740095736.8676,4338.462,4136.923,4289.744,4231.282,4248.718
1740095736.8754,4358.974,4132.308,4268.718,4224.615,4245.128
1740095736.8832,4375.385,4141.026,4266.667,4213.333,4236.923
1740095736.891,4361.026,4129.231,4251.282,4203.077,4224.615
1740095736.8989,4363.077,4122.051,4236.923,4205.641,4228.205
1740095736.9067,4356.923,4141.026,4234.359,4213.333,4240
1740095736.9145,4320,4153.333,4248.718,4213.333,4236.923
1740095736.9223,4320,4151.282,4252.308,4226.667,4237.436
1740095736.9301,4340.513,4153.846,4264.615,4243.59,4248.205
1740095736.9378,4324.103,4160,4268.205,4243.59,4254.359
1740095736.9456,4311.795,4153.846,4264.615,4236.923,4254.872
1740095736.9534,4324.103,4133.333,4241.026,4228.718,4245.128
1740095736.9614,4354.872,4122.051,4229.231,4208.718,4225.128
1740095736.9694,4383.59,4121.026,4215.897,4190.256,4210.256
1740095736.9771,4365.128,4103.59,4186.154,4176.923,4201.026
1740095736.9849,4336.41,4104.103,4154.359,4176.923,4207.692
1740095736.9929,4350.769,4136.923,4151.795,4188.205,4223.077
1740095737.0007,4346.667,4137.436,4160.513,4181.538,4215.897
1740095737.0087,4324.103,4123.59,4164.615,4176.923,4216.923
1740095737.0164,4338.462,4130.769,4179.487,4183.59,4229.744
1740095737.0244,4350.769,4112.308,4184.103,4166.154,4204.103
1740095737.0324,4342.564,4074.359,4179.487,4145.641,4165.641
1740095737.0404,4369.231,4092.308,4170.256,4163.077,4168.718
1740095737.0484,4381.538,4114.872,4173.333,4164.615,4174.359
1740095737.0563,4379.487,4110.769,4167.179,4160,4191.282
1740095737.0641,4400,4125.641,4178.974,4181.538,4220.513
1740095737.0721,4391.795,4153.333,4189.231,4188.718,4216.41
1740095737.0799,4350.769,4141.026,4197.436,4157.949,4192.308
1740095737.0879,4363.077,4118.462,4195.897,4136.41,4186.154
1740095737.0958,4387.692,4126.667,4215.897,4141.538,4177.436
1740095737.1038,4363.077,4141.026,4222.564,4154.359,4175.385
1740095737.1116,4334.359,4135.897,4204.615,4153.333,4194.359
1740095737.1196,4334.359,4127.179,4184.103,4145.128,4202.564
1740095737.1274,4340.513,4123.59,4194.872,4134.872,4181.538
1740095737.1353,4346.667,4113.846,4203.59,4120,4162.051
1740095737.1431,4356.923,4120,4185.128,4129.231,4183.59
1740095737.1511,4361.026,4148.205,4168.205,4154.359,4215.385
1740095737.1591,4365.128,4169.744,4172.821,4164.103,4219.487
1740095737.1669,4375.385,4176.923,4182.564,4173.333,4221.026
1740095737.1748,4406.154,4191.282,4178.974,4201.538,4256.923
1740095737.1828,4426.667,4198.974,4194.359,4211.795,4274.872
1740095737.1908,4410.256,4197.949,4205.641,4206.667,4261.026
1740095737.1988,4361.026,4185.128,4210.769,4191.795,4244.615
1740095737.2066,4324.103,4157.949,4214.872,4158.974,4222.051
1740095737.2143,4299.487,4133.846,4227.179,4134.359,4189.744
1740095737.2221,4278.974,4136.923,4202.051,4141.538,4185.128
1740095737.2301,4295.385,4142.564,4190.256,4147.179,4194.359
1740095737.2381,4317.949,4144.103,4211.282,4144.103,4193.846
1740095737.2459,4330.256,4156.923,4241.026,4153.846,4203.077
1740095737.2536,4317.949,4165.128,4235.897,4160.513,4214.872
1740095737.2616,4291.282,4161.538,4239.487,4154.359,4213.333
1740095737.2696,4311.795,4168.718,4263.59,4166.667,4218.462
1740095737.2774,4367.179,4172.821,4273.333,4184.103,4222.564
1740095737.2852,4350.769,4156.41,4252.821,4165.128,4209.231
1740095737.2931,4293.333,4145.641,4235.897,4143.077,4200
1740095737.3009,4285.128,4132.821,4231.795,4154.359,4202.051
1740095737.3087,4311.795,4125.641,4209.744,4160,4210.769
1740095737.3165,4307.692,4143.077,4185.128,4143.59,4217.949
1740095737.3245,4301.538,4163.077,4162.564,4170.256,4233.846
1740095737.3322,4322.051,4158.462,4165.128,4227.179,4253.333
1740095737.3402,4356.923,4153.333,4191.795,4261.538,4268.205
1740095737.3482,4367.179,4155.897,4237.436,4284.615,4280.513
1740095737.3562,4375.385,4160,4257.949,4310.769,4298.974
1740095737.364,4383.59,4152.821,4266.667,4296.923,4290.769
1740095737.3719,4348.718,4126.667,4258.462,4265.128,4263.59
1740095737.3797,4315.897,4112.308,4251.282,4263.59,4260.513
1740095737.3877,4324.103,4132.308,4216.923,4269.231,4269.744
1740095737.3955,4326.154,4131.795,4189.744,4245.641,4251.282
1740095737.4035,4303.59,4102.051,4203.077,4222.564,4228.718
1740095737.4112,4303.59,4107.179,4230.769,4230.769,4233.333
1740095737.4192,4324.103,4127.692,4231.282,4240,4237.949
1740095737.427,4338.462,4126.154,4240.513,4235.897,4227.692
1740095737.435,4352.821,4128.205,4246.667,4242.051,4231.282
1740095737.4428,4361.026,4141.538,4208.718,4258.462,4260.513
1740095737.4505,4338.462,4141.538,4180,4264.615,4283.077
1740095737.4583,4315.897,4149.231,4186.667,4268.718,4285.128
1740095737.4661,4322.051,4147.692,4213.846,4264.103,4269.231
1740095737.4739,4356.923,4134.872,4229.231,4259.487,4257.949
1740095737.4817,4383.59,4139.487,4231.795,4264.615,4257.436
1740095737.4894,4381.538,4149.231,4215.385,4266.154,4260.513
1740095737.4972,4361.026,4137.949,4220.513,4255.385,4260
1740095737.505,4348.718,4131.795,4206.154,4255.385,4262.564
1740095737.5128,4342.564,4130.769,4184.103,4251.282,4257.949
1740095737.5206,4322.051,4121.026,4194.359,4232.308,4245.128
1740095737.5284,4291.282,4108.205,4240,4221.538,4232.308
1740095737.5363,4295.385,4101.026,4259.487,4224.615,4224.103
1740095737.5443,4344.615,4099.487,4274.359,4231.795,4227.692
1740095737.5521,4371.282,4109.231,4285.641,4246.154,4241.538
1740095737.5599,4348.718,4125.641,4290.256,4256.41,4249.744
1740095737.5677,4320,4121.026,4287.179,4250.256,4240.513
1740095737.5756,4313.846,4096.923,4258.974,4245.128,4233.333
1740095737.5836,4299.487,4097.949,4221.538,4244.103,4240
1740095737.5916,4283.077,4125.128,4218.974,4242.564,4250.256
1740095737.5996,4299.487,4123.59,4245.641,4242.051,4246.667
1740095737.6074,4342.564,4112.821,4257.436,4261.026,4248.718
1740095737.6151,4371.282,4121.538,4282.564,4280,4261.026
1740095737.6229,4393.846,4121.538,4288.718,4285.128,4271.795
1740095737.6307,4418.462,4101.538,4265.128,4288.205,4274.359
1740095737.6387,4422.564,4090.769,4229.231,4289.744,4273.846
1740095737.6465,4387.692,4086.667,4212.308,4278.974,4272.308
1740095737.6544,4348.718,4096.41,4183.59,4291.795,4290.769
1740095737.6622,4348.718,4115.385,4181.538,4322.564,4313.333
1740095737.6702,4377.436,4113.333,4212.308,4335.385,4316.923
1740095737.678,4406.154,4108.718,4248.205,4365.641,4334.359
1740095737.686,4438.974,4129.744,4235.385,4434.359,4382.051
1740095737.6939,4451.282,4145.128,4194.872,4476.923,4410.256
1740095737.7019,4412.308,4132.308,4174.872,4482.564,4413.846
1740095737.7097,4391.795,4118.974,4188.718,4497.436,4426.667
1740095737.7177,4408.205,4113.333,4207.692,4490.769,4418.974
1740095737.7255,4381.538,4095.897,4202.051,4433.846,4370.256
1740095737.7334,4313.846,4065.641,4182.564,4366.154,4321.026
1740095737.7414,4297.436,4075.385,4167.692,4334.872,4316.41
1740095737.7494,4297.436,4120,4174.872,4307.179,4314.872
1740095737.7574,4274.872,4138.974,4185.128,4254.872,4287.692
1740095737.7654,4293.333,4128.205,4210.256,4202.051,4260.513
1740095737.7733,4340.513,4144.103,4229.231,4180.513,4246.667
1740095737.7813,4352.821,4158.974,4236.923,4169.231,4226.667
1740095737.7893,4352.821,4135.897,4223.59,4153.846,4201.026
1740095737.7973,4346.667,4115.385,4227.692,4141.538,4183.59
1740095737.8053,4315.897,4122.564,4218.974,4132.821,4181.538
1740095737.813,4305.641,4118.974,4210.256,4116.41,4173.846
1740095737.8208,4320,4101.538,4207.179,4101.026,4157.436
1740095737.8286,4317.949,4099.487,4209.744,4099.487,4154.359
1740095737.8364,4313.846,4111.282,4208.205,4105.641,4162.564
1740095737.8444,4358.974,4132.308,4220,4116.41,4169.231
1740095737.8521,4412.308,4153.333,4225.641,4133.333,4189.231
1740095737.8599,4418.462,4156.41,4214.359,4146.154,4212.308
1740095737.8677,4400,4147.179,4201.538,4140.513,4203.59
1740095737.8757,4430.769,4157.949,4194.359,4143.59,4201.026
1740095737.8837,4459.487,4175.897,4211.795,4158.462,4214.359
1740095737.8916,4432.821,4178.462,4225.128,4158.462,4213.333
1740095737.8996,4408.205,4160.513,4227.179,4135.385,4191.282
1740095737.9074,4441.026,4164.103,4230.769,4140.513,4192.308
1740095737.9152,4457.436,4183.59,4251.282,4169.744,4208.718
1740095737.923,4418.462,4169.744,4242.051,4169.231,4195.385
1740095737.9307,4373.333,4132.821,4228.205,4148.205,4174.359
1740095737.9387,4379.487,4126.667,4211.795,4149.231,4178.974
1740095737.9467,4391.795,4132.821,4201.026,4152.308,4174.872
1740095737.9547,4369.231,4129.744,4173.333,4144.103,4162.564
1740095737.9625,4373.333,4141.026,4170.769,4143.59,4178.974
1740095737.9704,4428.718,4162.564,4194.872,4152.308,4196.41
1740095737.9782,4461.538,4173.846,4214.872,4156.41,4187.179
1740095737.9862,4463.59,4182.051,4213.333,4160.513,4185.641
1740095737.994,4461.538,4189.231,4221.026,4177.436,4205.128
1740095738.002,4443.077,4190.769,4227.179,4204.103,4229.744
1740095738.0097,4420.513,4177.436,4213.333,4210.256,4235.897
1740095738.0177,4377.436,4149.744,4206.667,4181.538,4205.128
1740095738.0255,4340.513,4147.692,4199.487,4168.205,4185.641
1740095738.0335,4338.462,4158.974,4190.256,4168.718,4189.744
1740095738.0413,4328.205,4144.103,4182.564,4148.205,4170.769
1740095738.0492,4287.179,4117.949,4195.897,4112.821,4129.744
1740095738.057,4295.385,4125.641,4209.744,4113.333,4136.923
1740095738.065,4363.077,4149.231,4236.41,4151.282,4183.077
1740095738.073,4391.795,4161.538,4250.769,4177.436,4205.641
1740095738.081,4373.333,4166.667,4257.949,4180,4204.103
1740095738.0887,4377.436,4173.846,4241.026,4195.385,4217.949
1740095738.0967,4395.897,4176.923,4236.923,4217.436,4235.897
1740095738.1045,4373.333,4180,4221.026,4222.564,4236.923
1740095738.1123,4332.308,4175.897,4205.128,4212.308,4230.769
1740095738.1201,4324.103,4158.974,4211.282,4193.846,4217.949
1740095738.1278,4346.667,4144.103,4232.308,4175.897,4193.333
1740095738.1356,4381.538,4149.744,4236.923,4178.974,4182.051
1740095738.1434,4404.103,4167.179,4235.897,4191.795,4187.692
1740095738.1512,4371.282,4157.436,4234.872,4178.462,4177.436
1740095738.159,4344.615,4134.359,4217.436,4168.205,4166.667
1740095738.1668,4379.487,4137.949,4211.795,4186.667,4181.538
1740095738.1745,4434.872,4168.205,4209.744,4217.949,4211.795
1740095738.1823,4418.462,4176.923,4207.179,4214.872,4215.897
1740095738.1903,4365.128,4175.385,4209.231,4196.923,4215.897
1740095738.1983,4369.231,4187.692,4227.692,4211.795,4237.949
1740095738.2063,4424.615,4201.026,4230.769,4245.641,4250.769
1740095738.2142,4438.974,4193.333,4234.872,4247.692,4228.205
1740095738.2222,4406.154,4177.436,4229.231,4232.821,4215.385
1740095738.2302,4389.744,4165.641,4224.103,4228.718,4220
1740095738.238,4383.59,4161.538,4187.179,4229.744,4217.436
1740095738.2458,4354.872,4162.051,4162.051,4225.128,4204.615
1740095738.2537,4330.256,4167.179,4180.513,4219.487,4196.41
1740095738.2615,4348.718,4182.051,4226.154,4220.513,4207.179
1740095738.2695,4385.641,4186.154,4242.564,4218.974,4208.718
1740095738.2773,4406.154,4164.103,4240,4205.641,4185.641
1740095738.2853,4414.359,4152.821,4238.974,4197.436,4184.615
1740095738.2932,4416.41,4168.718,4229.744,4211.795,4213.333
1740095738.3012,4402.051,4177.949,4213.846,4225.128,4221.026
1740095738.3092,4391.795,4185.641,4194.359,4230.256,4222.051
1740095738.3172,4373.333,4201.538,4205.128,4231.795,4228.205
1740095738.3252,4340.513,4204.103,4237.949,4232.308,4226.154
1740095738.3331,4334.359,4189.744,4268.205,4229.231,4223.59
1740095738.3411,4371.282,4189.231,4266.667,4229.744,4222.564
1740095738.3491,4373.333,4181.538,4266.667,4222.051,4201.538
1740095738.3569,4334.359,4154.872,4262.051,4207.179,4180
1740095738.3649,4344.615,4137.436,4256.41,4199.487,4181.538
1740095738.3728,4381.538,4149.744,4231.282,4209.231,4204.615
1740095738.3808,4371.282,4160,4212.821,4211.795,4215.385
1740095738.3886,4334.359,4160.513,4190.769,4206.154,4201.538
1740095738.3966,4334.359,4165.128,4195.897,4207.179,4192.821
1740095738.4046,4350.769,4164.615,4219.487,4206.154,4207.179
1740095738.4125,4342.564,4162.564,4241.538,4203.59,4212.821
1740095738.4205,4334.359,4174.872,4244.103,4212.821,4202.564
1740095738.4283,4369.231,4186.667,4231.282,4217.949,4202.564
1740095738.4363,4375.385,4182.564,4204.103,4216.41,4212.821
1740095738.4441,4340.513,4182.564,4178.462,4232.821,4222.051
1740095738.4518,4315.897,4178.462,4171.282,4216.41,4212.821
1740095738.4596,4313.846,4178.462,4161.026,4189.744,4214.359
1740095738.4674,4301.538,4185.128,4167.692,4233.333,4237.949
1740095738.4752,4307.692,4180.513,4188.718,4303.077,4257.949
1740095738.483,4324.103,4155.897,4206.667,4318.462,4251.795
1740095738.4909,4328.205,4141.538,4204.103,4325.641,4245.128
1740095738.4989,4332.308,4140,4213.333,4339.487,4248.718
1740095738.5069,4342.564,4140,4193.333,4327.179,4247.179
1740095738.5149,4352.821,4147.692,4175.897,4312.821,4241.538
1740095738.5227,4371.282,4167.692,4188.205,4317.436,4246.667
1740095738.5304,4373.333,4182.051,4218.462,4320,4259.487
1740095738.5382,4363.077,4187.179,4228.718,4325.641,4265.128
1740095738.546,4379.487,4187.179,4236.923,4332.308,4262.564
1740095738.5538,4389.744,4182.051,4208.718,4334.359,4264.103
1740095738.5616,4352.821,4178.462,4171.282,4327.179,4263.077
1740095738.5695,4322.051,4179.487,4182.051,4308.205,4253.846
1740095738.5773,4346.667,4181.538,4215.385,4295.385,4236.923
1740095738.5853,4369.231,4178.462,4230.769,4291.795,4221.026
1740095738.5933,4377.436,4182.051,4227.179,4293.333,4234.359
1740095738.6013,4395.897,4191.282,4212.308,4291.795,4255.897
1740095738.6092,4379.487,4201.538,4182.051,4294.872,4258.974
1740095738.6172,4332.308,4202.564,4187.692,4295.385,4255.897
1740095738.625,4334.359,4203.59,4215.897,4293.333,4270.256
1740095738.633,4358.974,4199.487,4239.487,4292.821,4274.359
1740095738.6408,4350.769,4182.051,4227.179,4294.872,4244.615
1740095738.6487,4328.205,4161.538,4209.231,4288.205,4213.846
1740095738.6567,4330.256,4157.436,4197.436,4286.667,4224.103
1740095738.6647,4348.718,4166.154,4206.154,4296.923,4245.641
1740095738.6725,4344.615,4176.41,4195.385,4305.641,4247.179
1740095738.6803,4315.897,4185.641,4184.615,4303.59,4250.256
1740095738.688,4311.795,4190.256,4180,4294.872,4248.718
1740095738.6958,4330.256,4195.897,4180.513,4290.256,4241.538
1740095738.7036,4317.949,4210.256,4180.513,4309.744,4256.923
1740095738.7114,4301.538,4220,4200,4328.205,4270.769
1740095738.7192,4311.795,4213.846,4218.974,4311.282,4256.41
1740095738.7271,4324.103,4217.436,4225.128,4301.026,4256.923
1740095738.7351,4313.846,4220,4232.821,4314.359,4263.077
1740095738.7431,4307.692,4204.103,4221.026,4323.077,4243.59
1740095738.7511,4311.795,4191.282,4216.923,4311.282,4222.051
1740095738.7589,4320,4196.923,4223.59,4294.872,4225.641
1740095738.7666,4326.154,4193.333,4217.949,4289.231,4233.846
1740095738.7744,4332.308,4193.333,4167.179,4309.231,4246.667
1740095738.7822,4340.513,4206.667,4161.026,4328.718,4263.077
1740095738.7902,4344.615,4217.436,4207.179,4339.487,4284.615
1740095738.7982,4340.513,4221.538,4236.41,4346.667,4291.282
1740095738.8062,4377.436,4231.282,4221.538,4349.231,4284.615
1740095738.8141,4428.718,4223.077,4216.923,4341.538,4277.949
1740095738.8219,4410.256,4203.59,4187.179,4332.308,4268.718
1740095738.8297,4352.821,4216.41,4159.487,4335.897,4275.897
1740095738.8375,4334.359,4236.923,4172.821,4340,4305.641
1740095738.8453,4330.256,4217.436,4193.333,4319.487,4292.821
1740095738.853,4309.744,4198.974,4202.564,4303.077,4245.641
1740095738.8608,4317.949,4228.718,4234.359,4331.795,4263.077
1740095738.8688,4332.308,4241.538,4255.897,4348.205,4305.128
1740095738.8766,4340.513,4223.59,4254.359,4327.179,4293.846
1740095738.8846,4365.128,4225.128,4261.538,4324.615,4281.538
1740095738.8923,4383.59,4241.538,4258.462,4342.564,4304.615
1740095738.9003,4354.872,4238.462,4250.769,4341.026,4296.923
1740095738.9081,4328.205,4232.821,4230.769,4332.821,4269.231
1740095738.9161,4336.41,4236.41,4215.385,4327.692,4268.205
1740095738.9241,4334.359,4242.564,4196.923,4325.641,4284.615
1740095738.932,4287.179,4238.462,4197.436,4320,4283.59
1740095738.9398,4272.821,4235.897,4220,4311.795,4279.487
1740095738.9478,4309.744,4252.821,4258.462,4312.821,4280
1740095738.9556,4324.103,4275.897,4252.308,4323.077,4276.923
1740095738.9636,4315.897,4266.154,4246.154,4322.051,4283.59
1740095738.9713,4313.846,4233.333,4263.59,4309.744,4297.436
1740095738.9793,4324.103,4224.615,4266.667,4299.487,4299.487
1740095738.9871,4317.949,4223.59,4241.538,4290.256,4275.385
1740095738.9951,4305.641,4207.179,4240.513,4280.513,4245.641
1740095739.0029,4311.795,4200,4277.436,4274.872,4234.359
1740095739.0108,4342.564,4209.231,4303.59,4273.846,4230.256
1740095739.0188,4332.308,4205.641,4288.205,4269.744,4221.538
1740095739.0268,4287.179,4201.538,4249.231,4265.641,4221.538
1740095739.0348,4283.077,4217.949,4243.077,4284.103,4249.744
1740095739.0426,4324.103,4248.718,4249.744,4317.949,4288.205
1740095739.0503,4340.513,4268.718,4258.462,4316.41,4290.256
1740095739.0581,4342.564,4271.795,4268.205,4305.641,4282.564
1740095739.0659,4350.769,4262.051,4301.026,4316.923,4299.487
1740095739.0737,4338.462,4255.385,4314.359,4316.41,4302.051
1740095739.0815,4289.231,4243.077,4297.436,4281.026,4250.256
1740095739.0894,4272.821,4234.872,4265.128,4269.231,4211.282
1740095739.0974,4307.692,4245.641,4256.923,4297.436,4232.308
1740095739.1052,4320,4261.538,4230.769,4314.359,4259.487
1740095739.113,4297.436,4270.769,4210.256,4309.744,4265.641
1740095739.121,4287.179,4274.359,4222.051,4306.154,4263.59
1740095739.1289,4291.282,4254.872,4245.641,4288.718,4240
1740095739.1367,4301.538,4235.897,4254.359,4265.641,4223.59
1740095739.1445,4342.564,4250.256,4260,4278.974,4253.333
1740095739.1525,4361.026,4242.564,4246.154,4285.128,4253.846
1740095739.1605,4328.205,4209.744,4209.231,4264.615,4201.026
1740095739.1682,4315.897,4217.436,4190.769,4261.026,4197.436
1740095739.176,4328.205,4234.359,4193.846,4268.718,4233.846
1740095739.184,4324.103,4214.872,4214.872,4254.359,4212.308
1740095739.192,4340.513,4230.256,4233.846,4255.897,4201.538
1740095739.2,4375.385,4255.897,4255.385,4275.897,4228.205
1740095739.2077,4391.795,4231.282,4254.359,4282.564,4227.692
1740095739.2157,4404.103,4208.205,4259.487,4271.795,4208.205
1740095739.2235,4410.256,4213.333,4266.154,4251.282,4200
1740095739.2313,4365.128,4198.974,4273.333,4229.231,4180
1740095739.2391,4315.897,4185.641,4269.231,4223.59,4173.333
1740095739.247,4311.795,4195.385,4278.462,4227.179,4193.333
1740095739.2548,4313.846,4205.128,4259.487,4221.026,4184.103
1740095739.2628,4320,4221.538,4230.256,4214.359,4160
1740095739.2706,4367.179,4241.538,4232.821,4227.692,4180
1740095739.2786,4385.641,4236.923,4257.436,4246.667,4230.769
1740095739.2865,4336.41,4202.564,4266.667,4235.385,4224.615
1740095739.2945,4289.231,4173.333,4274.359,4200,4151.282
1740095739.3023,4252.308,4159.487,4282.564,4156.923,4113.846
1740095739.3103,4215.385,4156.923,4269.744,4134.872,4136.41
1740095739.3183,4229.744,4149.231,4252.821,4126.667,4119.487
1740095739.3262,4283.077,4151.282,4238.462,4121.538,4092.308
1740095739.3342,4289.231,4175.897,4241.026,4128.718,4112.821
1740095739.3422,4297.436,4212.821,4227.179,4156.41,4135.897
1740095739.3502,4342.564,4232.308,4212.821,4174.359,4147.692
1740095739.3582,4367.179,4242.564,4210.769,4191.282,4179.487
1740095739.3661,4348.718,4266.154,4235.897,4216.923,4203.59
1740095739.3741,4334.359,4284.103,4243.077,4224.615,4208.205
1740095739.3819,4340.513,4273.846,4250.256,4212.308,4193.333
1740095739.3897,4342.564,4262.051,4254.872,4215.897,4186.667
1740095739.3975,4336.41,4263.59,4268.718,4221.026,4205.128
1740095739.4054,4326.154,4255.385,4271.282,4184.103,4190.256
1740095739.4134,4334.359,4246.667,4262.051,4154.359,4148.718
1740095739.4212,4350.769,4260.513,4249.744,4187.692,4158.974
1740095739.429,4342.564,4270.256,4260.513,4213.846,4182.564
1740095739.4368,4346.667,4272.821,4267.692,4204.103,4190.256
1740095739.4446,4387.692,4295.385,4263.077,4219.487,4226.667
1740095739.4523,4404.103,4309.744,4278.974,4232.308,4239.487
1740095739.4601,4377.436,4302.051,4290.256,4213.846,4195.897
1740095739.4679,4354.872,4294.359,4283.59,4206.154,4169.744
1740095739.4757,4358.974,4297.949,4283.077,4229.231,4190.256
1740095739.4837,4377.436,4292.821,4294.359,4238.974,4207.692
1740095739.4916,4381.538,4297.436,4268.205,4231.795,4216.41
1740095739.4996,4344.615,4298.974,4240.513,4226.154,4215.897
1740095739.5076,4328.205,4281.026,4236.41,4229.744,4203.077
1740095739.5156,4352.821,4265.641,4252.821,4223.59,4171.795
1740095739.5234,4352.821,4271.795,4248.718,4217.436,4158.462
1740095739.5313,4311.795,4284.103,4248.205,4222.564,4181.026
1740095739.5391,4303.59,4281.538,4239.487,4224.103,4186.667
1740095739.5471,4348.718,4284.615,4240.513,4222.564,4180
1740095739.5549,4369.231,4315.385,4250.769,4228.205,4204.615
1740095739.5629,4344.615,4319.487,4261.538,4230.256,4215.897
1740095739.5706,4334.359,4280,4252.821,4226.667,4188.205
1740095739.5786,4336.41,4268.205,4226.154,4208.718,4168.718
1740095739.5866,4303.59,4291.282,4198.974,4185.641,4147.179
1740095739.5946,4320,4304.615,4197.436,4196.41,4135.385
1740095739.6024,4373.333,4308.718,4212.308,4211.282,4172.821
1740095739.6103,4361.026,4314.872,4200,4202.564,4200.513
1740095739.6181,4342.564,4315.385,4200.513,4204.103,4168.718
1740095739.6259,4389.744,4334.359,4224.103,4238.462,4180
1740095739.6337,4387.692,4346.154,4236.41,4250.256,4225.128
1740095739.6417,4336.41,4327.692,4220.513,4224.615,4212.308
1740095739.6496,4336.41,4305.128,4222.051,4208.205,4180.513
1740095739.6574,4358.974,4315.385,4202.051,4219.487,4196.41
1740095739.6652,4379.487,4344.615,4180.513,4232.308,4219.487
1740095739.673,4412.308,4360,4178.462,4241.026,4218.974
1740095739.6808,4404.103,4356.41,4195.385,4245.641,4215.385
1740095739.6887,4391.795,4363.077,4197.949,4253.333,4225.128
1740095739.6967,4428.718,4376.923,4202.051,4267.179,4252.821
1740095739.7045,4447.179,4368.205,4214.872,4264.615,4255.897
1740095739.7123,4447.179,4358.462,4251.282,4248.205,4225.641
1740095739.7203,4473.846,4373.333,4277.949,4262.564,4228.205
1740095739.7282,4469.744,4374.359,4274.359,4286.154,4260.513
1740095739.7362,4432.821,4344.615,4246.154,4276.923,4253.333
1740095739.7442,4441.026,4335.385,4207.692,4265.641,4221.026
1740095739.752,4424.615,4338.462,4191.795,4256.41,4209.231
1740095739.7598,4383.59,4326.667,4189.231,4250.769,4215.385
1740095739.7677,4379.487,4315.385,4182.564,4253.846,4208.205
1740095739.7757,4397.949,4328.718,4159.487,4252.308,4207.692
1740095739.7837,4387.692,4335.385,4178.462,4233.333,4222.564
1740095739.7915,4391.795,4341.026,4187.692,4242.051,4245.128
1740095739.7995,4408.205,4350.769,4200.513,4271.282,4257.949
1740095739.8072,4395.897,4356.41,4209.231,4287.179,4266.667
1740095739.8152,4377.436,4357.949,4220.513,4276.923,4254.872
1740095739.823,4373.333,4351.282,4206.667,4255.897,4230.769
1740095739.831,4379.487,4349.231,4198.974,4253.846,4235.385
1740095739.8388,4385.641,4351.282,4199.487,4266.667,4257.436
1740095739.8467,4402.051,4348.718,4197.949,4263.077,4256.923
1740095739.8545,4416.41,4344.103,4197.436,4248.205,4230.256
1740095739.8625,4412.308,4348.718,4204.615,4250.256,4216.41
1740095739.8705,4408.205,4343.59,4210.769,4250.769,4224.615
1740095739.8785,4418.462,4325.641,4207.692,4244.103,4235.385
1740095739.8862,4414.359,4316.41,4213.846,4242.051,4232.821
1740095739.8942,4381.538,4319.487,4224.615,4239.487,4217.436
1740095739.902,4346.667,4326.154,4225.128,4238.974,4202.564
1740095739.91,4346.667,4331.282,4205.641,4247.692,4209.231
1740095739.9178,4348.718,4320.513,4197.949,4241.538,4218.974
1740095739.9257,4342.564,4321.538,4190.769,4232.308,4226.667
1740095739.9335,4334.359,4331.795,4187.179,4236.923,4240.513
1740095739.9415,4340.513,4326.667,4182.051,4241.538,4246.667
1740095739.9493,4350.769,4318.462,4200,4233.333,4239.487
1740095739.9573,4338.462,4330.256,4215.385,4233.846,4239.487
1740095739.9652,4315.897,4326.154,4230.769,4235.897,4227.179
1740095739.9732,4315.897,4305.641,4235.385,4225.641,4208.718
1740095739.9812,4332.308,4309.231,4242.564,4220,4222.564
1740095739.9892,4350.769,4327.692,4242.051,4234.359,4247.179
1740095739.9972,4383.59,4335.897,4242.564,4254.872,4241.026
1740095740.0051,4420.513,4351.282,4244.103,4272.308,4249.744
1740095740.0131,4432.821,4364.103,4238.462,4283.59,4286.667
1740095740.0211,4422.564,4345.128,4229.744,4282.051,4288.205
1740095740.0291,4412.308,4336.923,4226.667,4282.051,4276.923
1740095740.0371,4406.154,4355.385,4229.231,4290.769,4293.846
1740095740.045,4408.205,4358.462,4221.538,4295.385,4295.897
1740095740.053,4389.744,4334.872,4214.872,4273.333,4250.256
1740095740.061,4350.769,4331.282,4195.385,4256.41,4229.231
1740095740.069,4324.103,4333.333,4187.179,4252.821,4238.974
1740095740.077,4348.718,4327.692,4207.692,4249.231,4242.051
1740095740.0849,4371.282,4315.897,4249.231,4238.462,4232.821
1740095740.0927,4342.564,4289.231,4247.179,4229.231,4215.385
1740095740.1005,4346.667,4287.692,4234.872,4237.949,4225.641
1740095740.1083,4385.641,4323.077,4221.538,4257.436,4259.487
1740095740.1163,4379.487,4317.436,4209.231,4252.308,4244.103
1740095740.1241,4379.487,4293.333,4220,4237.949,4215.385
1740095740.132,4432.821,4325.641,4252.308,4254.872,4254.872
1740095740.1398,4420.513,4341.538,4247.179,4257.436,4273.846
1740095740.1478,4361.026,4309.231,4237.949,4238.462,4232.821
1740095740.1556,4354.872,4306.667,4240.513,4253.333,4240
1740095740.1634,4369.231,4327.692,4222.051,4281.026,4275.385
1740095740.1711,4356.923,4325.128,4195.897,4280.513,4262.564
1740095740.1791,4361.026,4325.641,4187.692,4277.949,4258.974
1740095740.1869,4387.692,4339.487,4216.923,4287.692,4278.462
1740095740.1949,4438.974,4349.231,4257.949,4302.051,4277.436
1740095740.2027,4471.795,4342.564,4272.821,4304.103,4275.897
1740095740.2106,4443.077,4331.282,4263.077,4300.513,4294.872
1740095740.2184,4395.897,4326.154,4266.154,4309.744,4303.59
1740095740.2264,4369.231,4326.154,4237.949,4311.282,4294.359
1740095740.2342,4369.231,4319.487,4225.641,4284.615,4281.026
1740095740.242,4428.718,4325.128,4251.282,4290.256,4270.256
1740095740.2497,4482.051,4342.051,4258.974,4322.051,4271.282
1740095740.2577,4463.59,4331.795,4207.692,4316.41,4291.282
1740095740.2657,4432.821,4307.692,4176.923,4297.949,4301.538
1740095740.2737,4441.026,4323.59,4177.436,4324.103,4303.077
1740095740.2817,4445.128,4345.641,4190.769,4348.205,4312.821
1740095740.2894,4416.41,4321.026,4214.872,4321.538,4306.667
1740095740.2972,4412.308,4315.385,4259.487,4308.718,4296.41
1740095740.305,4443.077,4349.744,4287.179,4331.282,4312.821
1740095740.3128,4424.615,4337.949,4257.949,4316.923,4300
1740095740.3206,4369.231,4288.205,4221.026,4273.333,4245.641
1740095740.3283,4377.436,4281.538,4213.333,4269.744,4256.923
1740095740.3361,4410.256,4288.205,4205.128,4280.513,4300
1740095740.3439,4393.846,4273.333,4174.359,4280.513,4297.949
1740095740.3519,4381.538,4268.718,4193.846,4278.974,4273.846
1740095740.3599,4397.949,4284.615,4238.974,4274.359,4254.872
1740095740.3678,4395.897,4278.974,4254.872,4267.179,4240.513
1740095740.3758,4422.564,4277.436,4243.077,4273.846,4249.231
1740095740.3838,4469.744,4284.615,4244.103,4270.769,4260
1740095740.3918,4473.846,4278.462,4231.795,4267.179,4270.769
1740095740.3996,4457.436,4285.641,4223.59,4283.59,4282.564
1740095740.4073,4461.538,4312.308,4215.385,4296.41,4275.897
1740095740.4153,4455.385,4316.923,4216.923,4303.077,4284.615
1740095740.4233,4432.821,4307.692,4227.692,4308.205,4318.462
1740095740.4313,4422.564,4300,4233.333,4296.41,4302.564
1740095740.4393,4408.205,4283.077,4214.872,4275.385,4245.641
1740095740.4472,4410.256,4290.256,4192.821,4284.103,4254.359
1740095740.4552,4443.077,4316.923,4175.385,4312.308,4297.949
1740095740.4632,4436.923,4320.513,4147.179,4321.538,4294.359
1740095740.4712,4387.692,4308.205,4141.026,4304.615,4281.026
1740095740.4792,4393.846,4311.282,4163.59,4301.026,4312.821
1740095740.4871,4441.026,4316.923,4194.359,4310.256,4329.744
1740095740.4951,4451.282,4314.872,4196.923,4305.641,4294.359
1740095740.5029,4443.077,4314.872,4189.231,4309.231,4284.615
1740095740.5109,4443.077,4320.513,4169.231,4328.205,4324.615
1740095740.5189,4430.769,4325.128,4155.385,4330.256,4355.385
1740095740.5268,4457.436,4343.59,4126.667,4345.641,4369.744
1740095740.5346,4492.308,4359.487,4102.051,4375.385,4388.205
1740095740.5426,4471.795,4348.718,4109.744,4365.128,4396.923
1740095740.5506,4438.974,4344.103,4136.923,4343.077,4371.282
1740095740.5584,4449.231,4362.051,4117.949,4362.564,4364.103
1740095740.5663,4471.795,4350.256,4085.641,4361.538,4373.846
1740095740.5741,4467.692,4326.667,4046.667,4342.051,4367.692
1740095740.5819,4455.385,4354.359,3989.231,4369.231,4386.154
1740095740.5899,4461.538,4377.436,3968.718,4392.821,4414.872
1740095740.5979,4494.359,4358.462,4017.949,4382.051,4405.128
1740095740.6056,4514.872,4366.667,4056.41,4395.897,4395.897
1740095740.6134,4518.974,4407.179,4053.333,4430.256,4425.128
1740095740.6212,4514.872,4404.615,4072.821,4428.205,4443.59
1740095740.629,4494.359,4387.179,4078.974,4428.205,4454.359
1740095740.6368,4465.641,4384.103,4074.872,4432.308,4447.692
1740095740.6445,4451.282,4371.795,4107.179,4416.41,4422.051
1740095740.6523,4432.821,4370.256,4164.615,4402.051,4422.051
1740095740.6601,4412.308,4370.256,4164.615,4373.333,4411.795
1740095740.6679,4430.769,4336.923,4161.538,4338.462,4369.744
1740095740.6759,4482.051,4332.821,4171.795,4366.154,4378.462
1740095740.6838,4502.564,4348.205,4158.462,4390.256,4399.487
1740095740.6918,4516.923,4329.744,4139.487,4358.462,4380.513
1740095740.6996,4553.846,4324.615,4145.128,4350.769,4373.333
1740095740.7074,4560,4330.769,4127.692,4356.41,4370.256
1740095740.7152,4545.641,4305.641,4122.564,4326.667,4351.795
1740095740.723,4516.923,4275.385,4149.231,4301.026,4329.231
1740095740.7309,4473.846,4260.513,4165.128,4287.692,4309.744
1740095740.7389,4475.897,4233.846,4157.436,4256.923,4292.821
1740095740.7469,4529.231,4216.41,4148.718,4245.128,4281.026
1740095740.7549,4523.077,4215.385,4145.641,4248.718,4268.205
1740095740.7629,4500.513,4211.795,4145.641,4238.462,4262.564
1740095740.7706,4514.872,4210.769,4175.385,4222.051,4258.462
1740095740.7784,4531.282,4228.205,4210.256,4229.744,4260.513
1740095740.7862,4547.692,4247.692,4215.385,4261.026,4287.692
1740095740.7942,4564.103,4243.59,4195.385,4281.538,4307.692
1740095740.8022,4533.333,4224.103,4221.538,4262.051,4287.179
1740095740.8101,4496.41,4209.744,4243.077,4231.282,4268.205
1740095740.8179,4475.897,4187.692,4235.897,4214.872,4250.769
1740095740.8259,4441.026,4182.051,4233.333,4211.795,4227.692
1740095740.8337,4418.462,4198.974,4234.359,4209.231,4235.385
1740095740.8417,4416.41,4204.615,4207.179,4206.154,4261.026
1740095740.8496,4412.308,4194.359,4212.308,4211.795,4247.179
1740095740.8574,4426.667,4183.59,4234.872,4209.744,4221.538
1740095740.8652,4451.282,4193.846,4233.846,4204.103,4238.462
1740095740.873,4449.231,4220,4234.872,4217.949,4252.308
1740095740.8808,4447.179,4233.333,4261.026,4230.769,4245.128
1740095740.8885,4459.487,4235.897,4294.359,4235.897,4271.795
1740095740.8963,4441.026,4255.385,4301.026,4266.667,4322.051
1740095740.9041,4412.308,4258.462,4298.462,4279.487,4308.718
1740095740.9119,4402.051,4236.923,4305.128,4246.154,4249.744
1740095740.9197,4391.795,4232.821,4317.949,4241.538,4252.821
1740095740.9274,4395.897,4242.564,4310.256,4280.513,4307.179
1740095740.9352,4402.051,4226.154,4312.821,4265.641,4290.256
1740095740.943,4387.692,4209.744,4308.718,4217.949,4242.051
1740095740.9508,4375.385,4221.026,4302.564,4237.436,4265.128
1740095740.9588,4406.154,4232.308,4283.59,4304.615,4307.179
1740095740.9667,4451.282,4218.462,4261.026,4335.385,4301.538
1740095740.9747,4492.308,4223.59,4232.821,4357.949,4307.179
1740095740.9827,4551.795,4268.718,4238.974,4404.615,4364.615
1740095740.9907,4594.872,4292.308,4263.59,4406.667,4396.923
1740095740.9987,4605.128,4285.641,4275.897,4371.282,4378.974
1740095741.0066,4598.974,4290.769,4276.41,4375.385,4374.359
1740095741.0146,4607.179,4285.641,4282.051,4398.974,4383.59
1740095741.0226,4621.538,4260,4272.308,4387.179,4368.718
1740095741.0306,4594.872,4250.769,4236.41,4356.41,4344.103
1740095741.0384,4523.077,4242.051,4226.154,4323.077,4324.615
1740095741.0463,4500.513,4237.949,4246.667,4305.128,4312.821
1740095741.0541,4504.615,4246.154,4265.128,4302.051,4294.359
1740095741.0621,4500.513,4250.256,4265.128,4307.179,4282.051
1740095741.0701,4549.744,4256.923,4278.974,4324.103,4304.615
1740095741.0781,4625.641,4271.282,4283.59,4342.051,4338.462
1740095741.0858,4625.641,4270.256,4283.077,4341.026,4328.205
1740095741.0938,4609.231,4275.897,4286.154,4350.256,4325.128
1740095741.1016,4594.872,4286.154,4305.641,4364.615,4351.282
1740095741.1096,4543.59,4273.333,4312.308,4359.487,4358.462
1740095741.1174,4537.436,4261.538,4315.897,4342.051,4341.026
1740095741.1253,4562.051,4262.564,4285.128,4323.59,4325.128
1740095741.1331,4588.718,4252.308,4252.821,4311.282,4321.538
1740095741.1409,4666.667,4236.41,4265.128,4304.103,4306.667
1740095741.1487,4754.872,4243.59,4303.59,4290.769,4290.769
1740095741.1567,4797.949,4261.026,4322.051,4292.308,4315.385
1740095741.1646,4834.872,4260,4315.897,4325.641,4351.282
1740095741.1724,4880,4240.513,4303.59,4344.615,4335.385
1740095741.1804,4896.41,4242.051,4288.718,4349.231,4332.308
1740095741.1882,4865.641,4249.744,4282.051,4352.308,4361.026
1740095741.196,4828.718,4231.795,4255.897,4335.385,4336.41
1740095741.2037,4824.615,4220,4238.462,4308.205,4287.179
1740095741.2115,4818.462,4240,4250.256,4291.282,4300.513
1740095741.2193,4793.846,4247.179,4287.692,4282.564,4332.308
1740095741.2271,4802.051,4225.641,4304.615,4295.897,4310.769
1740095741.2349,4808.205,4205.641,4310.256,4304.103,4269.744
1740095741.2426,4795.897,4218.974,4322.051,4297.949,4282.051
1740095741.2504,4795.897,4232.821,4335.385,4297.436,4302.051
1740095741.2582,4773.333,4206.667,4304.615,4282.564,4271.282
1740095741.2662,4769.231,4185.128,4276.41,4263.59,4263.59
1740095741.2742,4820.513,4212.821,4257.949,4292.821,4314.359
1740095741.2819,4814.359,4227.692,4243.077,4315.897,4313.846
1740095741.2899,4732.308,4197.436,4245.128,4275.897,4261.026
1740095741.2979,4734.359,4190.769,4276.41,4250.256,4267.692
1740095741.3059,4812.308,4210.256,4297.436,4275.385,4305.128
1740095741.3137,4836.923,4215.897,4290.769,4293.333,4296.923
1740095741.3215,4791.795,4217.436,4283.077,4282.564,4273.333
1740095741.3292,4761.026,4216.923,4282.564,4277.436,4280
1740095741.337,4767.179,4203.59,4294.872,4286.667,4277.949
1740095741.345,4761.026,4196.923,4290.256,4291.282,4263.077
1740095741.3528,4746.667,4192.308,4290.256,4273.333,4263.59
1740095741.3608,4773.333,4181.538,4283.077,4262.564,4257.949
1740095741.3687,4775.385,4182.051,4265.128,4272.308,4239.487
1740095741.3767,4746.667,4205.128,4248.718,4276.41,4263.59
1740095741.3847,4748.718,4222.051,4260,4279.487,4306.154
1740095741.3927,4775.385,4230.769,4272.308,4320.513,4314.872
1740095741.4007,4785.641,4238.462,4294.359,4364.615,4313.333
1740095741.4086,4802.051,4236.923,4318.462,4373.846,4336.923
1740095741.4166,4804.103,4223.59,4331.795,4361.026,4340.513
1740095741.4246,4763.077,4199.487,4321.026,4330.256,4281.026
1740095741.4326,4742.564,4184.615,4297.436,4304.615,4240.513
1740095741.4406,4767.179,4208.205,4271.795,4323.59,4276.41
1740095741.4485,4802.051,4241.026,4247.692,4352.821,4302.051
1740095741.4565,4810.256,4229.744,4213.846,4339.487,4271.282
1740095741.4645,4802.051,4221.026,4198.462,4321.538,4269.231
1740095741.4725,4810.256,4237.436,4229.744,4320,4278.974
1740095741.4805,4826.667,4241.538,4261.026,4316.41,4264.103
1740095741.4884,4802.051,4232.821,4268.205,4319.487,4274.872
1740095741.4964,4769.231,4233.333,4257.436,4325.641,4286.154
1740095741.5044,4781.538,4228.205,4254.872,4311.795,4253.333
1740095741.5124,4810.256,4233.846,4251.795,4321.026,4259.487
1740095741.5204,4832.821,4250.769,4265.128,4357.949,4312.308
1740095741.5283,4841.026,4249.231,4243.077,4355.897,4313.333
1740095741.5363,4806.154,4237.436,4208.205,4329.744,4274.359
1740095741.5443,4763.077,4242.564,4211.795,4337.949,4282.051
1740095741.5521,4771.282,4256.41,4251.795,4351.795,4313.333
1740095741.5599,4777.436,4256.923,4254.872,4348.718,4313.846
1740095741.5678,4732.308,4249.744,4242.051,4355.385,4308.205
1740095741.5756,4676.923,4238.462,4230.256,4357.436,4312.308
1740095741.5836,4660.513,4230.256,4206.667,4346.667,4306.154
1740095741.5914,4693.333,4234.359,4191.795,4339.487,4297.949
1740095741.5992,4730.256,4248.205,4211.282,4339.487,4310.256
1740095741.6069,4726.154,4254.359,4236.923,4330.256,4308.205
1740095741.6147,4742.564,4260,4236.41,4340,4296.41
1740095741.6225,4765.128,4263.59,4218.462,4366.154,4307.179
1740095741.6303,4756.923,4261.538,4195.385,4375.897,4323.077
1740095741.6381,4754.872,4254.872,4204.615,4357.949,4302.564
1740095741.6458,4793.846,4254.872,4226.154,4346.667,4288.718
1740095741.6536,4797.949,4249.231,4234.359,4346.667,4305.641
1740095741.6616,4730.256,4231.795,4200.513,4333.846,4307.692
1740095741.6694,4672.821,4222.051,4175.385,4320.513,4275.897
1740095741.6774,4695.385,4240,4173.333,4333.333,4270.769
1740095741.6853,4715.897,4244.615,4193.846,4326.667,4287.179
1740095741.6933,4703.59,4224.103,4221.026,4296.923,4270.256
1740095741.7011,4756.923,4237.436,4256.41,4308.205,4256.923
1740095741.7089,4818.462,4275.897,4259.487,4350.769,4294.359
1740095741.7167,4763.077,4268.718,4223.077,4351.795,4312.821
1740095741.7246,4693.333,4241.026,4186.154,4324.615,4281.026
1740095741.7324,4689.231,4251.282,4186.154,4326.667,4281.026
1740095741.7404,4676.923,4260,4209.231,4332.821,4294.872
1740095741.7482,4660.513,4246.154,4221.538,4313.846,4266.154
1740095741.7561,4678.974,4241.538,4229.744,4297.949,4253.333
1740095741.7638,4687.179,4247.692,4253.333,4313.846,4283.077
1740095741.7718,4693.333,4234.872,4283.59,4320.513,4282.051
1740095741.7796,4728.205,4220.513,4277.949,4303.59,4255.385
1740095741.7876,4705.641,4212.821,4271.795,4284.615,4233.846
1740095741.7956,4672.821,4204.615,4275.385,4282.564,4222.564
1740095741.8035,4754.872,4212.821,4274.359,4299.487,4249.231
1740095741.8113,4810.256,4227.692,4254.359,4308.718,4274.872
1740095741.8191,4711.795,4217.436,4259.487,4292.821,4247.692
1740095741.8269,4627.692,4218.462,4260,4295.897,4245.128
1740095741.8347,4629.744,4236.923,4256.41,4308.718,4271.795
1740095741.8427,4627.692,4231.795,4258.462,4289.744,4258.462
1740095741.8506,4640,4227.179,4272.821,4281.026,4258.974
1740095741.8586,4656.41,4256.923,4282.564,4304.103,4296.923
1740095741.8664,4625.641,4270.256,4302.564,4312.821,4292.308
1740095741.8742,4615.385,4251.282,4325.128,4308.205,4272.308
1740095741.8822,4674.872,4256.41,4314.359,4318.462,4305.128
1740095741.8901,4678.974,4265.641,4272.308,4314.872,4325.128
1740095741.8979,4637.949,4250.256,4227.179,4300,4303.077
1740095741.9059,4658.462,4238.462,4213.846,4296.41,4292.821
1740095741.9139,4691.282,4251.282,4238.462,4296.41,4309.231
1740095741.9217,4681.026,4250.769,4264.615,4280,4300
1740095741.9296,4701.538,4248.718,4241.026,4273.846,4286.667
1740095741.9374,4734.359,4263.077,4218.462,4290.256,4308.205
1740095741.9452,4752.821,4247.179,4206.667,4292.308,4305.128
1740095741.953,4783.59,4217.949,4189.231,4272.821,4266.667
1740095741.961,4777.436,4234.359,4158.974,4273.846,4281.026
1740095741.9687,4707.692,4251.795,4166.154,4274.359,4307.692
1740095741.9767,4685.128,4238.974,4195.385,4257.949,4288.205
1740095741.9845,4705.641,4237.949,4225.128,4254.872,4285.641
1740095741.9925,4699.487,4247.179,4225.641,4265.128,4307.692
1740095742.0003,4699.487,4240,4215.385,4262.564,4298.974
1740095742.008,4705.641,4236.41,4216.923,4261.026,4292.308
1740095742.0158,4683.077,4238.462,4213.846,4263.59,4301.538
1740095742.0238,4644.103,4229.744,4206.154,4248.718,4286.667
1740095742.0316,4642.051,4232.821,4224.103,4238.462,4278.462
1740095742.0396,4676.923,4240.513,4261.026,4237.949,4285.128
1740095742.0473,4713.846,4232.308,4253.846,4235.385,4267.692
1740095742.0553,4695.385,4209.744,4219.487,4224.615,4229.231
1740095742.0631,4648.205,4201.538,4211.795,4219.487,4229.231
1740095742.0711,4648.205,4214.872,4229.231,4230.769,4264.103
1740095742.0791,4674.872,4227.179,4213.846,4235.385,4273.333
1740095742.087,4678.974,4232.821,4217.949,4228.718,4257.949
1740095742.095,4681.026,4246.667,4253.333,4230.256,4269.744
1740095742.103,4705.641,4247.179,4280.513,4229.744,4285.128
1740095742.111,4758.974,4229.744,4269.744,4227.692,4264.103
1740095742.1188,4787.692,4221.538,4250.256,4230.256,4251.795
1740095742.1265,4736.41,4222.564,4224.615,4225.641,4269.231
1740095742.1343,4678.974,4213.846,4205.641,4207.692,4255.385
1740095742.1421,4676.923,4213.846,4186.154,4201.026,4224.615
1740095742.1501,4687.179,4228.205,4180,4210.256,4235.385
1740095742.1581,4699.487,4230.256,4211.282,4211.282,4256.923
1740095742.1658,4724.103,4222.564,4260.513,4191.795,4239.487
1740095742.1738,4705.641,4222.564,4282.564,4178.462,4219.487
1740095742.1818,4678.974,4227.179,4284.103,4202.051,4233.333
1740095742.1898,4674.872,4210.256,4277.436,4207.179,4229.231
1740095742.1978,4637.949,4191.282,4244.103,4177.949,4206.154
1740095742.2057,4613.333,4206.667,4224.615,4181.026,4218.974
1740095742.2135,4642.051,4237.949,4214.872,4221.026,4257.436
1740095742.2213,4640,4230.769,4213.333,4222.051,4253.846
1740095742.2291,4635.897,4209.231,4222.564,4194.872,4234.359
1740095742.2369,4687.179,4220.513,4248.718,4197.436,4240
1740095742.2446,4705.641,4237.436,4247.692,4213.846,4239.487
1740095742.2524,4676.923,4220.513,4253.333,4204.103,4226.154
1740095742.2602,4689.231,4197.949,4265.128,4195.897,4213.846
1740095742.268,4715.897,4195.897,4267.179,4206.154,4196.923
1740095742.276,4703.59,4207.692,4264.103,4224.103,4214.872
1740095742.2837,4701.538,4209.744,4267.692,4233.846,4254.359
1740095742.2917,4724.103,4201.538,4249.744,4229.744,4251.795
1740095742.2995,4726.154,4213.846,4230.769,4237.436,4237.436
1740095742.3075,4707.692,4235.897,4228.718,4245.641,4243.077
1740095742.3153,4676.923,4240.513,4220.513,4237.949,4247.179
1740095742.323,4640,4236.41,4205.128,4244.103,4265.128
1740095742.3308,4623.59,4248.718,4208.718,4269.231,4292.308
1740095742.3388,4607.179,4264.103,4238.462,4270.256,4271.795
1740095742.3466,4605.128,4269.231,4250.256,4261.026,4252.821
1740095742.3546,4631.795,4252.308,4256.41,4261.538,4261.538
1740095742.3623,4670.769,4241.538,4262.564,4267.692,4257.949
1740095742.3703,4687.179,4250.256,4256.923,4275.385,4253.333
1740095742.3781,4660.513,4242.564,4222.564,4273.846,4265.128
1740095742.3861,4598.974,4218.974,4207.692,4253.333,4254.359
1740095742.3939,4562.051,4222.564,4192.308,4237.436,4225.641
1740095742.4018,4580.513,4235.897,4185.128,4236.923,4215.385
1740095742.4098,4586.667,4245.128,4216.41,4252.308,4241.538
1740095742.4178,4586.667,4273.333,4262.051,4281.026,4285.641
1740095742.4256,4615.385,4291.282,4269.231,4294.872,4288.718
1740095742.4336,4650.256,4282.564,4277.436,4287.692,4255.385
1740095742.4416,4650.256,4265.641,4287.179,4267.692,4234.359
1740095742.4495,4652.308,4244.103,4264.103,4242.564,4228.718
1740095742.4575,4666.667,4216.41,4242.051,4230.256,4211.795
1740095742.4653,4672.821,4203.077,4243.077,4232.821,4200.513
1740095742.4731,4664.615,4200,4247.692,4226.667,4209.231
1740095742.4811,4652.308,4199.487,4237.436,4225.128,4215.385
1740095742.489,4642.051,4202.564,4232.821,4239.487,4212.308
1740095742.497,4662.564,4214.359,4217.949,4255.897,4225.128
1740095742.505,4672.821,4230.256,4206.667,4253.846,4233.333
1740095742.513,4662.564,4244.615,4204.615,4255.897,4230.256
1740095742.521,4668.718,4246.154,4229.231,4268.205,4242.564
1740095742.5287,4674.872,4245.128,4254.359,4270.769,4256.41
1740095742.5365,4644.103,4251.282,4276.923,4261.538,4229.744
1740095742.5443,4617.436,4255.897,4276.923,4257.436,4211.795
1740095742.5521,4640,4246.667,4263.077,4260.513,4228.718
1740095742.5599,4687.179,4238.974,4240.513,4264.103,4230.769
1740095742.5676,4715.897,4257.949,4244.615,4272.308,4235.385
1740095742.5754,4685.128,4270.769,4242.564,4285.128,4266.154
1740095742.5832,4644.103,4260.513,4217.949,4295.385,4283.59
1740095742.5912,4646.154,4255.385,4210.256,4301.026,4279.487
1740095742.5992,4654.359,4255.385,4223.077,4302.051,4274.872
1740095742.6071,4623.59,4242.051,4228.718,4295.385,4262.564
1740095742.6149,4596.923,4235.385,4228.718,4280.513,4246.667
1740095742.6227,4588.718,4235.897,4242.564,4263.59,4239.487
1740095742.6305,4586.667,4240,4249.231,4269.744,4239.487
1740095742.6383,4613.333,4250.256,4265.128,4281.026,4245.641
1740095742.646,4633.846,4257.436,4257.436,4283.077,4262.051
1740095742.654,4623.59,4256.923,4250.256,4283.59,4262.564
1740095742.6618,4637.949,4262.564,4265.641,4292.821,4252.821
1740095742.6698,4660.513,4260,4282.564,4297.436,4256.923
1740095742.6776,4635.897,4250.256,4267.692,4297.436,4259.487
1740095742.6855,4617.436,4243.077,4258.462,4294.359,4240
1740095742.6935,4629.744,4240,4237.436,4289.231,4235.897
1740095742.7013,4617.436,4244.103,4213.333,4289.744,4255.385
1740095742.7091,4590.769,4253.333,4186.154,4289.744,4255.385
1740095742.7169,4568.205,4247.692,4161.538,4275.385,4230.256
1740095742.7246,4531.282,4239.487,4155.897,4263.59,4225.128
1740095742.7324,4531.282,4251.795,4175.897,4268.718,4245.128
1740095742.7402,4568.205,4254.359,4192.308,4267.179,4246.667
1740095742.748,4594.872,4245.128,4208.205,4278.462,4246.667
1740095742.7558,4615.385,4244.103,4247.692,4295.897,4254.359
1740095742.7635,4650.256,4252.308,4268.205,4280.513,4249.744
1740095742.7713,4633.846,4248.718,4262.564,4257.949,4230.769
1740095742.7791,4590.769,4241.026,4252.308,4282.564,4234.872
1740095742.7869,4607.179,4238.462,4247.692,4323.59,4259.487
1740095742.7947,4652.308,4250.769,4211.795,4345.128,4284.615
1740095742.8024,4625.641,4269.744,4180.513,4351.795,4295.385
1740095742.8102,4584.615,4291.795,4163.59,4356.923,4301.538
1740095742.818,4619.487,4319.487,4167.692,4368.718,4316.41
1740095742.8258,4685.128,4338.462,4187.179,4383.077,4327.692
1740095742.8336,4687.179,4338.974,4226.667,4386.667,4335.897
1740095742.8413,4672.821,4328.718,4234.359,4392.821,4343.59
1740095742.8491,4715.897,4315.385,4226.154,4396.923,4331.795
1740095742.8569,4722.051,4293.846,4212.821,4374.872,4307.692
1740095742.8647,4648.205,4277.949,4183.59,4354.872,4297.949
1740095742.8725,4611.282,4292.821,4166.154,4368.205,4311.282
1740095742.8802,4633.846,4320.513,4188.205,4386.154,4332.821
1740095742.8882,4637.949,4321.026,4220,4373.333,4329.744
1740095742.8962,4621.538,4303.077,4227.692,4357.949,4308.205
1740095742.9042,4619.487,4294.872,4223.59,4366.667,4310.769
1740095742.9122,4598.974,4290.256,4215.385,4367.692,4316.41
1740095742.9201,4562.051,4272.308,4248.718,4339.487,4281.026
1740095742.9281,4601.026,4283.077,4286.667,4347.179,4278.462
1740095742.9361,4687.179,4333.846,4281.538,4407.692,4342.564
1740095742.9441,4707.692,4380.513,4246.154,4458.974,4398.462
1740095742.9521,4664.615,4390.256,4227.692,4468.205,4407.692
1740095742.9598,4646.154,4385.128,4199.487,4459.487,4397.436
1740095742.9678,4658.462,4384.615,4211.282,4446.154,4383.077
1740095742.9758,4668.718,4384.103,4255.385,4447.692,4385.128
1740095742.9838,4672.821,4385.641,4284.103,4466.667,4409.231
1740095742.9916,4658.462,4387.692,4276.923,4471.282,4413.846
1740095742.9995,4642.051,4384.615,4261.026,4465.641,4401.538
1740095743.0073,4646.154,4374.359,4236.41,4465.641,4401.538
1740095743.0153,4646.154,4372.308,4226.667,4461.538,4405.641
1740095743.0233,4644.103,4377.436,4254.872,4448.718,4398.462
1740095743.0313,4652.308,4370.769,4294.872,4438.462,4382.564
1740095743.0393,4658.462,4360,4323.077,4431.282,4369.231
1740095743.0472,4646.154,4377.436,4327.692,4445.128,4371.795
1740095743.055,4625.641,4408.205,4321.538,4470.769,4387.692
1740095743.0628,4642.051,4434.359,4297.436,4498.974,4429.231
1740095743.0706,4683.077,4441.538,4275.897,4513.333,4466.154
1740095743.0784,4730.256,4435.897,4286.154,4512.821,4464.103
1740095743.0861,4752.821,4431.282,4312.821,4502.051,4443.59
1740095743.0939,4744.615,4418.462,4290.256,4491.282,4428.205
1740095743.1017,4736.41,4398.462,4277.949,4487.692,4407.179
1740095743.1095,4726.154,4407.692,4300.513,4491.795,4402.051
1740095743.1173,4703.59,4428.205,4315.897,4481.538,4410.256
1740095743.125,4705.641,4424.103,4282.564,4471.282,4407.692
1740095743.1328,4754.872,4423.59,4245.641,4489.744,4412.821
1740095743.1406,4775.385,4451.282,4198.974,4525.128,4450.769
1740095743.1484,4763.077,4480,4145.641,4554.359,4494.359
1740095743.1562,4758.974,4496.923,4131.282,4570.769,4506.667
1740095743.1639,4748.718,4490.769,4160,4561.026,4498.974
1740095743.1719,4722.051,4453.333,4173.846,4538.974,4486.667
1740095743.1799,4717.949,4429.231,4143.59,4540.513,4477.949
1740095743.1877,4699.487,4426.154,4109.231,4528.718,4461.538
1740095743.1955,4652.308,4429.231,4110.256,4498.974,4440.513
1740095743.2034,4664.615,4442.051,4160.513,4496.41,4435.385
1740095743.2112,4736.41,4470.769,4197.949,4534.359,4470.769
1740095743.2192,4752.821,4482.564,4193.333,4555.897,4499.487
1740095743.2272,4709.744,4478.462,4164.615,4550.769,4487.692
1740095743.2352,4681.026,4482.051,4177.949,4546.154,4481.026
1740095743.2431,4681.026,4484.615,4204.615,4535.897,4495.897
1740095743.2511,4695.385,4476.41,4213.846,4522.564,4495.385
1740095743.2589,4691.282,4461.538,4195.385,4521.538,4483.59
1740095743.2669,4654.359,4447.179,4173.846,4518.462,4479.487
1740095743.2747,4611.282,4438.462,4134.872,4501.026,4469.231
1740095743.2826,4598.974,4437.949,4118.974,4484.615,4452.308
1740095743.2904,4623.59,4437.949,4154.359,4477.436,4438.974
1740095743.2984,4658.462,4438.462,4198.974,4480.513,4443.077
1740095743.3062,4672.821,4445.641,4189.744,4491.282,4466.667
1740095743.3142,4685.128,4450.256,4146.667,4501.026,4480.513
1740095743.3219,4695.385,4444.615,4152.308,4497.436,4467.179
1740095743.3299,4695.385,4442.051,4195.385,4491.282,4462.564
1740095743.3377,4693.333,4434.359,4207.179,4484.615,4469.744
1740095743.3457,4687.179,4424.103,4181.026,4487.179,4460.513
1740095743.3537,4662.564,4429.231,4174.359,4498.974,4446.154
1740095743.3614,4654.359,4449.231,4157.436,4512.821,4464.103
1740095743.3692,4670.769,4450.769,4150.256,4513.333,4490.256
1740095743.377,4691.282,4452.821,4175.897,4510.256,4495.897
1740095743.3848,4711.795,4463.59,4210.256,4516.923,4486.667
1740095743.3926,4701.538,4456.923,4180.513,4518.462,4478.462
1740095743.4003,4654.359,4442.564,4135.897,4513.846,4483.077
1740095743.4081,4662.564,4450.256,4147.179,4515.897,4491.282
1740095743.4159,4705.641,4458.974,4200,4511.795,4482.564
1740095743.4237,4695.385,4456.923,4189.231,4509.744,4477.949
1740095743.4315,4656.41,4468.205,4148.205,4530.256,4499.487
1740095743.4392,4646.154,4488.205,4178.974,4554.872,4524.103
1740095743.447,4633.846,4485.128,4231.282,4550.256,4516.41
1740095743.4548,4586.667,4446.667,4208.718,4518.974,4473.333
1740095743.4626,4549.744,4414.872,4181.026,4495.897,4444.103
1740095743.4704,4564.103,4422.051,4233.846,4488.205,4445.128
1740095743.4781,4592.821,4429.231,4268.205,4485.128,4446.667
1740095743.4859,4586.667,4401.026,4229.231,4475.897,4433.846
1740095743.4939,4574.359,4399.487,4200,4481.026,4438.462
1740095743.5017,4557.949,4425.641,4230.256,4473.846,4437.949
1740095743.5097,4527.179,4417.436,4251.795,4447.692,4412.308
1740095743.5176,4527.179,4405.641,4241.026,4458.462,4406.667
1740095743.5256,4531.282,4430.769,4200.513,4489.231,4437.436
1740095743.5336,4496.41,4443.077,4207.692,4478.462,4447.692
1740095743.5416,4490.256,4425.128,4260.513,4455.385,4423.59
1740095743.5494,4510.769,4402.564,4287.179,4450.769,4408.205
1740095743.5571,4480,4378.974,4252.821,4435.897,4401.538
1740095743.5651,4432.821,4365.128,4233.846,4406.154,4377.436
1740095743.5729,4430.769,4366.154,4250.256,4391.795,4361.538
1740095743.5809,4465.641,4365.641,4274.872,4393.333,4356.923
1740095743.5887,4521.026,4361.026,4279.487,4400,4352.821
1740095743.5966,4553.846,4360.513,4251.795,4414.359,4374.359
1740095743.6044,4535.385,4360.513,4224.615,4424.103,4399.487
1740095743.6124,4514.872,4362.051,4208.205,4419.487,4386.154
1740095743.6204,4498.462,4367.692,4213.846,4413.333,4375.385
1740095743.6284,4498.462,4386.154,4243.077,4426.154,4405.641
1740095743.6362,4531.282,4390.769,4273.333,4429.231,4413.333
1740095743.6441,4555.897,4369.231,4265.128,4414.359,4381.538
1740095743.6519,4551.795,4357.949,4262.051,4406.667,4363.077
1740095743.6599,4557.949,4369.744,4250.256,4412.308,4376.41
1740095743.6679,4566.154,4365.128,4231.795,4405.641,4377.949
1740095743.6759,4553.846,4355.897,4230.256,4394.359,4365.128
1740095743.6836,4543.59,4367.692,4268.718,4400,4362.051
1740095743.6915,4560,4386.667,4290.256,4413.333,4378.462
1740095743.6993,4570.256,4378.462,4277.949,4408.718,4388.205
1740095743.7073,4562.051,4353.333,4258.974,4401.538,4377.436
1740095743.7153,4570.256,4356.41,4253.846,4421.026,4385.128
1740095743.7232,4568.205,4381.026,4225.641,4434.359,4410.256
1740095743.731,4539.487,4382.564,4198.462,4413.333,4406.154
1740095743.739,4547.692,4371.795,4241.026,4397.949,4387.179
1740095743.747,4609.231,4391.795,4304.615,4426.154,4407.692
1740095743.7548,4607.179,4410.256,4305.128,4449.231,4429.744
1740095743.7625,4555.897,4394.359,4278.462,4430.256,4409.231
1740095743.7705,4525.128,4358.974,4278.974,4396.923,4370.256
1740095743.7783,4514.872,4340,4275.385,4388.205,4353.333
1740095743.7861,4525.128,4348.205,4287.692,4393.333,4363.077
1740095743.7939,4557.949,4354.359,4308.205,4398.974,4377.949
1740095743.8016,4566.154,4344.615,4318.974,4406.667,4381.538
1740095743.8094,4537.436,4336.41,4291.795,4403.077,4376.923
1740095743.8174,4506.667,4326.667,4264.103,4374.872,4356.923
1740095743.8254,4494.359,4333.846,4246.154,4370.256,4353.333
1740095743.8334,4502.564,4354.872,4258.462,4393.846,4374.359
1740095743.8411,4498.462,4364.103,4275.385,4393.846,4375.897
1740095743.8491,4504.615,4373.333,4298.462,4394.359,4377.436
1740095743.8571,4553.846,4394.359,4326.667,4433.333,4409.231
1740095743.8649,4586.667,4398.462,4340,4456.41,4424.615
1740095743.8727,4533.333,4372.821,4315.385,4428.205,4401.538
1740095743.8806,4484.103,4358.974,4283.59,4412.308,4397.949
1740095743.8884,4529.231,4392.821,4293.333,4450.769,4432.821
1740095743.8964,4635.897,4469.231,4331.282,4523.077,4495.385
1740095743.9042,4707.692,4521.538,4346.667,4576.41,4547.179
1740095743.9122,4711.795,4545.128,4308.205,4611.795,4583.59
1740095743.9201,4701.538,4588.205,4285.128,4653.846,4631.795
1740095743.9281,4711.795,4630.769,4306.667,4683.59,4672.821
1740095743.9361,4732.308,4636.923,4335.897,4698.974,4691.795
1740095743.9441,4750.769,4643.077,4307.692,4737.436,4725.128
1740095743.9519,4728.205,4656.923,4290.769,4763.077,4742.564
1740095743.9598,4695.385,4657.949,4330.769,4746.154,4724.615
1740095743.9676,4701.538,4642.564,4343.077,4727.179,4708.205
1740095743.9756,4713.846,4634.359,4273.333,4734.872,4705.641
1740095743.9834,4705.641,4643.077,4271.282,4737.949,4708.718
1740095743.9914,4730.256,4652.308,4334.872,4735.385,4722.564
1740095743.9991,4748.718,4653.333,4322.051,4744.615,4730.769
1740095744.0071,4713.846,4664.103,4279.487,4752.308,4728.718
1740095744.0149,4736.41,4692.308,4318.974,4765.641,4749.231
1740095744.0227,4810.256,4702.564,4336.41,4788.718,4781.026
1740095744.0305,4802.051,4698.974,4294.872,4800,4793.846
1740095744.0382,4752.821,4692.308,4312.308,4783.077,4782.051
1740095744.0462,4746.667,4680,4335.897,4772.308,4770.256
1740095744.054,4734.359,4668.205,4306.154,4770.769,4758.462
1740095744.0618,4713.846,4661.026,4303.077,4754.872,4736.41
1740095744.0696,4707.692,4648.205,4317.949,4734.872,4715.385
1740095744.0773,4687.179,4645.128,4272.821,4734.359,4717.949
1740095744.0853,4681.026,4646.667,4266.154,4737.436,4717.949
1740095744.0933,4705.641,4646.667,4287.179,4736.923,4717.949
1740095744.1011,4715.897,4653.333,4275.897,4741.026,4727.692
1740095744.1089,4707.692,4657.949,4290.256,4753.333,4732.821
1740095744.1166,4713.846,4653.846,4332.821,4763.59,4731.795
1740095744.1244,4707.692,4655.385,4295.897,4752.821,4732.821
1740095744.1324,4676.923,4660.513,4287.179,4727.692,4722.051
1740095744.1404,4644.103,4653.333,4337.949,4717.949,4696.41
1740095744.1484,4642.051,4636.41,4320.513,4720.513,4689.744
1740095744.1563,4666.667,4632.308,4281.026,4722.051,4703.59
1740095744.1643,4678.974,4636.41,4320.513,4716.41,4694.872
1740095744.1723,4646.154,4606.667,4325.128,4692.308,4659.487
1740095744.1801,4611.282,4582.051,4258.974,4669.231,4653.333
1740095744.1879,4623.59,4606.667,4270.256,4671.795,4673.333
1740095744.1958,4674.872,4633.333,4313.333,4707.692,4689.744
1740095744.2036,4689.231,4637.949,4288.718,4746.667,4708.205
1740095744.2116,4668.718,4653.333,4267.692,4750.769,4709.231
1740095744.2194,4652.308,4645.128,4291.282,4725.128,4681.538
1740095744.2274,4652.308,4618.974,4267.692,4712.821,4677.436
1740095744.2353,4637.949,4608.205,4264.615,4699.487,4680
1740095744.2433,4621.538,4588.205,4287.179,4678.974,4653.333
1740095744.2511,4625.641,4567.179,4274.359,4678.974,4646.154
1740095744.2591,4631.795,4571.282,4270.256,4676.41,4661.026
1740095744.2669,4598.974,4558.462,4291.795,4645.128,4630.256
1740095744.2748,4560,4533.846,4257.949,4626.154,4584.103
1740095744.2826,4584.615,4538.462,4251.282,4636.41,4592.308
1740095744.2906,4601.026,4550.256,4285.128,4640,4621.538
1740095744.2984,4568.205,4546.667,4271.282,4624.615,4609.231
1740095744.3064,4572.308,4543.077,4275.897,4611.282,4579.487
1740095744.3141,4615.385,4545.641,4318.974,4618.974,4590.256
1740095744.3219,4607.179,4534.359,4297.949,4624.103,4612.821
1740095744.3297,4576.41,4518.462,4259.487,4609.231,4588.718
1740095744.3375,4568.205,4510.256,4285.641,4585.128,4541.538
1740095744.3453,4592.821,4503.077,4285.128,4574.359,4538.462
1740095744.3531,4609.231,4490.256,4240.513,4571.282,4562.564
1740095744.3608,4584.615,4490.256,4222.564,4567.179,4560
1740095744.3686,4580.513,4505.641,4264.615,4564.103,4538.462
1740095744.3764,4611.282,4508.718,4291.282,4562.564,4543.077
1740095744.3842,4603.077,4490.769,4288.205,4551.795,4554.872
1740095744.392,4588.718,4484.615,4257.436,4552.308,4558.462
1740095744.3997,4605.128,4484.615,4246.154,4552.821,4550.256
1740095744.4075,4611.282,4469.744,4275.385,4531.795,4529.744
1740095744.4153,4590.769,4446.667,4309.231,4510.769,4511.282
1740095744.4231,4566.154,4435.897,4275.897,4507.692,4503.59
1740095744.4311,4545.641,4447.179,4243.077,4513.846,4515.385
1740095744.439,4529.231,4471.282,4267.179,4513.846,4532.821
1740095744.447,4508.718,4484.103,4296.41,4509.231,4535.897
1740095744.455,4477.949,4453.333,4281.026,4502.051,4510.769
1740095744.463,4465.641,4409.744,4239.487,4492.821,4478.974
1740095744.471,4496.41,4409.744,4237.436,4484.615,4480
1740095744.4787,4533.333,4442.564,4271.282,4489.744,4502.051
1740095744.4865,4494.359,4429.744,4289.231,4481.538,4486.154
1740095744.4945,4420.513,4385.641,4252.308,4454.872,4458.974
1740095744.5023,4397.949,4380,4227.692,4443.59,4469.231
1740095744.5103,4432.821,4401.026,4244.615,4447.179,4480.513
1740095744.5182,4494.359,4392.308,4284.103,4435.897,4449.231
1740095744.5262,4539.487,4378.974,4278.462,4427.179,4421.026
1740095744.5342,4504.615,4383.077,4253.846,4423.077,4425.128
1740095744.5422,4463.59,4387.692,4264.103,4423.077,4448.718
1740095744.55,4492.308,4381.026,4294.872,4419.487,4447.179
1740095744.5579,4500.513,4358.974,4298.974,4388.205,4392.821
1740095744.5657,4475.897,4324.103,4285.128,4356.41,4348.718
1740095744.5737,4477.949,4308.205,4241.538,4369.744,4366.154
1740095744.5815,4504.615,4325.128,4221.026,4393.333,4388.718
1740095744.5895,4516.923,4339.487,4262.051,4379.487,4379.487
1740095744.5972,4506.667,4336.923,4296.923,4363.59,4376.923
1740095744.6052,4494.359,4331.282,4291.282,4379.487,4388.205
1740095744.613,4514.872,4331.282,4283.077,4401.026,4401.026
1740095744.621,4510.769,4324.103,4269.231,4390.256,4402.564
1740095744.6288,4451.282,4309.231,4230.769,4361.538,4382.051
1740095744.6366,4422.564,4292.821,4233.846,4340,4350.256
1740095744.6444,4451.282,4283.077,4271.282,4336.41,4350.256
1740095744.6522,4455.385,4285.128,4300.513,4337.436,4365.128
1740095744.66,4428.718,4293.846,4286.667,4330.769,4355.385
1740095744.668,4438.974,4292.308,4269.744,4322.051,4337.949
1740095744.6759,4492.308,4282.051,4253.846,4326.154,4333.846
1740095744.6837,4514.872,4278.462,4249.744,4334.872,4337.949
1740095744.6915,4473.846,4289.231,4241.538,4332.308,4344.103
1740095744.6993,4418.462,4282.051,4252.821,4313.333,4335.385
1740095744.7071,4410.256,4245.128,4279.487,4293.333,4313.846
1740095744.7148,4461.538,4229.231,4296.923,4286.154,4303.077
1740095744.7226,4477.949,4245.641,4281.026,4284.103,4299.487
1740095744.7304,4447.179,4252.821,4248.205,4283.077,4295.897
1740095744.7382,4473.846,4243.077,4229.231,4277.949,4299.487
1740095744.7462,4518.974,4244.615,4214.359,4268.205,4300
1740095744.7541,4477.949,4246.667,4200,4258.974,4286.154
1740095744.7621,4430.769,4251.795,4215.385,4267.179,4287.179
1740095744.7701,4461.538,4265.641,4271.282,4270.769,4300.513
1740095744.7779,4484.103,4263.59,4291.282,4254.872,4298.462
1740095744.7857,4428.718,4220.513,4269.744,4227.179,4264.615
1740095744.7934,4408.205,4195.897,4255.385,4220.513,4238.462
1740095744.8012,4461.538,4233.333,4266.667,4245.641,4260.513
1740095744.8092,4488.205,4265.128,4247.692,4265.641,4293.333
1740095744.8172,4494.359,4246.154,4227.692,4259.487,4284.615
1740095744.8252,4543.59,4253.333,4227.692,4269.744,4286.154
1740095744.8331,4549.744,4291.282,4259.487,4292.308,4324.615
1740095744.8411,4484.103,4277.436,4282.051,4286.667,4325.641
1740095744.8491,4475.897,4236.41,4298.462,4262.564,4280
1740095744.8571,4512.821,4228.205,4310.256,4243.59,4254.872
1740095744.8649,4484.103,4221.538,4297.949,4233.846,4251.795
1740095744.8728,4391.795,4195.385,4256.923,4226.667,4234.359
1740095744.8806,4371.282,4194.872,4223.59,4219.487,4223.59
1740095744.8886,4445.128,4217.949,4212.308,4214.872,4238.974
1740095744.8964,4484.103,4227.692,4195.897,4221.538,4251.282
1740095744.9044,4455.385,4222.564,4202.564,4231.282,4250.256
1740095744.9121,4428.718,4227.179,4240,4245.641,4255.897
1740095744.9201,4400,4232.821,4273.846,4246.154,4243.59
1740095744.9279,4406.154,4228.205,4274.359,4228.718,4231.282
1740095744.9359,4500.513,4231.282,4280.513,4230.256,4261.538
1740095744.9437,4580.513,4249.744,4283.077,4250.256,4292.821
1740095744.9516,4570.256,4263.59,4282.051,4258.974,4282.051
1740095744.9596,4574.359,4265.641,4262.564,4266.667,4278.974
1740095744.9674,4603.077,4254.872,4254.872,4264.103,4286.154
1740095744.9752,4582.564,4232.308,4254.359,4242.051,4267.179
1740095744.983,4570.256,4220,4246.667,4230.769,4243.59
1740095744.9908,4605.128,4219.487,4218.462,4237.949,4238.974
1740095744.9985,4588.718,4211.795,4224.103,4236.41,4236.41
1740095745.0063,4545.641,4195.897,4240,4223.59,4216.923
1740095745.0141,4578.462,4195.385,4223.59,4223.077,4197.949
1740095745.0219,4607.179,4206.154,4191.795,4232.821,4201.538
1740095745.0297,4570.256,4209.231,4177.436,4230.256,4207.692
1740095745.0374,4557.949,4212.821,4196.41,4223.077,4205.641
1740095745.0452,4609.231,4232.821,4221.538,4245.128,4229.744
1740095745.053,4619.487,4241.026,4212.821,4253.846,4252.308
1740095745.061,4574.359,4238.462,4182.051,4236.923,4247.179
1740095745.069,4543.59,4233.846,4192.821,4225.641,4232.308
1740095745.0769,4533.333,4220.513,4212.821,4216.41,4215.897
1740095745.0849,4486.154,4215.385,4226.667,4201.026,4200.513
1740095745.0927,4457.436,4229.744,4229.231,4207.692,4211.282
1740095745.1005,4488.205,4226.154,4238.462,4218.974,4223.077
1740095745.1083,4504.615,4222.564,4240.513,4220,4216.923
1740095745.116,4473.846,4244.615,4247.692,4226.667,4227.179
1740095745.124,4459.487,4256.41,4234.359,4234.872,4245.641
1740095745.132,4475.897,4245.641,4221.538,4235.897,4237.949
1740095745.14,4467.692,4242.564,4213.333,4236.41,4225.128
1740095745.1478,4402.051,4250.769,4207.179,4227.692,4218.462
1740095745.1557,4348.718,4243.59,4204.615,4211.282,4203.077
1740095745.1637,4387.692,4236.41,4215.385,4214.872,4199.487
1740095745.1717,4426.667,4234.359,4235.385,4223.59,4208.205
1740095745.1795,4397.949,4221.026,4248.718,4212.821,4198.974
1740095745.1875,4402.051,4210.769,4251.795,4209.231,4189.744
1740095745.1954,4438.974,4224.615,4233.846,4228.205,4208.205
1740095745.2034,4430.769,4233.333,4223.077,4230.256,4218.462
1740095745.2112,4426.667,4238.974,4212.308,4229.231,4217.949
1740095745.2192,4455.385,4242.564,4203.59,4234.359,4213.846
1740095745.227,4465.641,4229.744,4198.462,4229.744,4203.077
1740095745.2349,4486.154,4215.385,4218.974,4222.564,4194.359
1740095745.2429,4490.256,4211.795,4229.744,4218.462,4192.821
1740095745.2509,4397.949,4198.462,4248.205,4198.462,4181.538
1740095745.2589,4317.949,4174.872,4277.436,4174.872,4168.718
1740095745.2669,4365.128,4147.179,4290.256,4152.308,4148.718
1740095745.2748,4445.128,4132.308,4277.949,4132.821,4118.462
1740095745.2828,4471.795,4143.077,4278.462,4136.923,4109.744
1740095745.2906,4502.564,4153.846,4283.59,4156.41,4115.897
1740095745.2984,4529.231,4165.641,4285.641,4175.385,4131.795
1740095745.3062,4471.795,4183.59,4282.051,4185.641,4155.897
1740095745.3139,4418.462,4189.744,4266.154,4186.154,4162.564
1740095745.3217,4453.333,4192.821,4249.231,4188.205,4153.846
1740095745.3295,4516.923,4208.718,4247.179,4197.949,4165.128
1740095745.3373,4516.923,4198.974,4255.385,4185.641,4168.718
1740095745.3451,4494.359,4168.205,4257.949,4167.692,4147.179
1740095745.3528,4516.923,4161.026,4277.949,4162.051,4135.897
1740095745.3608,4541.538,4162.564,4285.641,4146.667,4135.385
1740095745.3688,4525.128,4138.974,4285.128,4128.205,4121.538
1740095745.3768,4516.923,4125.128,4274.872,4131.795,4112.821
1740095745.3848,4516.923,4137.436,4268.205,4128.718,4110.256
1740095745.3927,4516.923,4154.872,4256.923,4124.615,4121.538
1740095745.4007,4553.846,4164.103,4256.923,4147.692,4136.41
1740095745.4087,4576.41,4172.308,4249.231,4169.231,4138.462
1740095745.4167,4541.538,4177.949,4247.179,4166.154,4143.077
1740095745.4247,4527.179,4172.821,4238.974,4164.103,4159.487
1740095745.4324,4518.974,4159.487,4224.103,4164.103,4156.923
1740095745.4404,4451.282,4156.41,4216.923,4152.821,4134.359
1740095745.4482,4397.949,4160,4220,4142.564,4129.744
1740095745.4562,4379.487,4149.744,4213.333,4137.436,4135.385
1740095745.4642,4365.128,4152.821,4206.667,4141.538,4138.974
1740095745.4721,4385.641,4165.641,4226.667,4149.231,4141.538
1740095745.4799,4404.103,4163.077,4248.718,4148.205,4132.821
1740095745.4879,4383.59,4153.333,4265.128,4142.564,4121.026
1740095745.4957,4414.359,4165.128,4272.308,4158.974,4145.128
1740095745.5037,4506.667,4181.026,4296.923,4176.41,4172.308
1740095745.5114,4512.821,4177.436,4306.667,4167.692,4162.051
1740095745.5194,4441.026,4161.538,4294.359,4153.333,4148.205
1740095745.5272,4430.769,4163.077,4272.308,4160.513,4165.128
1740095745.5352,4482.051,4180,4269.744,4171.795,4171.282
1740095745.543,4490.256,4179.487,4267.179,4174.872,4155.897
1740095745.5509,4471.795,4165.641,4264.615,4176.923,4164.103
1740095745.5589,4477.949,4162.564,4242.051,4177.949,4182.564
1740095745.5668,4496.41,4167.179,4228.205,4171.795,4174.872
1740095745.5746,4506.667,4173.846,4236.923,4169.231,4166.667
1740095745.5824,4500.513,4170.256,4251.795,4169.231,4175.385
1740095745.5901,4461.538,4155.897,4265.641,4164.615,4173.333
1740095745.5979,4430.769,4158.462,4290.769,4168.205,4175.385
1740095745.6057,4447.179,4180,4310.769,4178.462,4186.154
1740095745.6135,4498.462,4192.821,4315.385,4179.487,4180.513
1740095745.6213,4504.615,4174.872,4318.974,4162.564,4160
1740095745.629,4467.692,4154.359,4308.718,4152.821,4160
1740095745.6368,4426.667,4148.718,4295.385,4156.41,4170.256
1740095745.6446,4422.564,4146.667,4270.769,4157.949,4162.564
1740095745.6524,4453.333,4133.333,4257.949,4142.564,4137.949
1740095745.6602,4496.41,4127.179,4258.462,4129.744,4135.385
1740095745.668,4500.513,4128.205,4257.949,4124.103,4139.487
1740095745.6759,4484.103,4117.949,4226.154,4115.385,4122.051
1740095745.6839,4537.436,4121.538,4212.821,4125.128,4122.564
1740095745.6919,4609.231,4142.564,4196.41,4147.692,4146.154
1740095745.6999,4590.769,4147.692,4177.949,4142.051,4143.077
1740095745.7077,4557.949,4150.256,4178.974,4136.41,4141.026
1740095745.7154,4576.41,4171.282,4200.513,4156.41,4155.897
1740095745.7232,4603.077,4189.744,4223.077,4173.333,4158.462
1740095745.731,4607.179,4189.744,4251.795,4180,4169.744
1740095745.739,4596.923,4183.077,4274.359,4187.179,4191.795
1740095745.747,4580.513,4180,4275.385,4187.692,4195.897
1740095745.7549,4566.154,4172.308,4270.769,4170.256,4180
1740095745.7627,4580.513,4164.103,4260,4161.538,4164.615
1740095745.7707,4607.179,4152.308,4251.795,4157.949,4154.872
1740095745.7787,4642.051,4140.513,4234.872,4149.231,4149.231
1740095745.7867,4646.154,4136.923,4223.59,4146.154,4133.846
1740095745.7944,4551.795,4156.923,4212.821,4161.538,4133.846
1740095745.8024,4451.282,4163.59,4212.821,4168.205,4152.821
1740095745.8104,4500.513,4157.436,4226.154,4165.641,4158.974
1740095745.8184,4598.974,4175.385,4254.872,4182.564,4165.641
1740095745.8262,4564.103,4193.333,4244.103,4203.59,4188.205
1740095745.8341,4436.923,4177.949,4237.436,4200.513,4190.256
1740095745.8421,4350.769,4166.667,4265.128,4182.051,4172.308
1740095745.8501,4328.205,4161.026,4286.667,4162.564,4147.692
1740095745.8579,4358.974,4136.923,4266.154,4152.308,4126.667
1740095745.8659,4418.462,4132.821,4250.769,4156.923,4136.923
1740095745.8738,4436.923,4155.897,4252.821,4168.718,4164.615
1740095745.8818,4445.128,4164.615,4258.462,4171.282,4159.487
1740095745.8896,4469.744,4154.872,4257.949,4164.103,4128.718
1740095745.8974,4496.41,4167.179,4252.821,4175.897,4137.949
1740095745.9052,4500.513,4188.718,4260,4204.615,4173.333
1740095745.9129,4510.769,4188.205,4262.051,4221.026,4188.718
1740095745.9207,4531.282,4174.359,4255.897,4215.385,4190.256
1740095745.9287,4529.231,4162.051,4239.487,4206.667,4186.667
1740095745.9367,4508.718,4141.538,4228.205,4186.667,4157.436
1740095745.9447,4494.359,4131.795,4206.154,4162.051,4135.897
1740095745.9524,4475.897,4136.923,4196.923,4153.846,4137.949
1740095745.9602,4490.256,4144.103,4183.59,4167.179,4140
1740095745.968,4560,4169.744,4188.205,4170.769,4154.359
1740095745.976,4598.974,4192.308,4194.359,4167.179,4180
1740095745.984,4549.744,4172.308,4192.308,4187.179,4165.128
1740095745.9919,4537.436,4152.821,4203.077,4215.385,4141.026
1740095745.9999,4584.615,4148.205,4242.051,4213.333,4151.282
1740095746.0077,4580.513,4114.359,4260.513,4185.641,4134.359
1740095746.0157,4549.744,4076.923,4250.769,4152.308,4077.436
1740095746.0235,4555.897,4072.821,4230.256,4124.103,4053.846
1740095746.0312,4574.359,4066.667,4209.744,4113.333,4057.436
1740095746.0392,4564.103,4038.974,4211.795,4100.513,4032.308
1740095746.047,4543.59,4026.667,4216.41,4085.128,4013.846
1740095746.055,4514.872,4034.359,4210.256,4078.974,4027.692
1740095746.0628,4484.103,4032.821,4213.333,4070.256,4032.308
1740095746.0707,4492.308,4005.128,4228.718,4047.179,4006.667
1740095746.0785,4553.846,3995.897,4230.256,4041.538,3996.923
1740095746.0865,4603.077,4010.769,4255.897,4052.308,4005.128
1740095746.0943,4551.795,4016.41,4278.974,4058.974,4010.769
1740095746.1023,4463.59,3995.385,4281.538,4046.154,3995.385
1740095746.1102,4436.923,3964.103,4272.821,4017.949,3961.538
1740095746.1182,4436.923,3940,4289.231,3978.462,3928.718
1740095746.126,4406.154,3921.538,4291.795,3934.359,3901.538
1740095746.134,4395.897,3905.641,4281.026,3910.256,3886.154
1740095746.1418,4420.513,3897.949,4261.538,3911.795,3885.128
1740095746.1497,4414.359,3888.205,4261.026,3903.59,3880.513
1740095746.1575,4369.231,3859.487,4270.769,3868.718,3856.41
1740095746.1655,4311.795,3825.128,4248.205,3835.385,3824.103
1740095746.1733,4266.667,3793.333,4207.179,3814.359,3791.282
1740095746.1813,4260.513,3771.282,4196.41,3796.41,3757.949
1740095746.1892,4276.923,3747.692,4211.282,3764.615,3725.128
1740095746.1972,4289.231,3716.923,4203.077,3729.231,3698.462
1740095746.205,4299.487,3712.821,4206.154,3708.718,3683.077
1740095746.2128,4313.846,3744.615,4230.256,3713.333,3695.385
1740095746.2206,4281.026,3738.974,4235.897,3715.385,3712.308
1740095746.2285,4256.41,3697.436,4196.41,3703.077,3702.564
1740095746.2365,4285.128,3684.103,4191.282,3693.333,3682.051
1740095746.2445,4303.59,3690.256,4216.923,3691.795,3675.897
1740095746.2525,4278.974,3680,4238.462,3682.564,3649.231
1740095746.2603,4276.923,3674.359,4238.974,3673.846,3616.923
1740095746.268,4311.795,3686.667,4225.128,3687.179,3645.128
1740095746.2758,4373.333,3712.308,4192.308,3721.538,3697.436
1740095746.2836,4416.41,3730.256,4187.692,3736.41,3694.872
1740095746.2916,4373.333,3717.436,4196.41,3712.308,3663.077
1740095746.2996,4311.795,3708.718,4173.846,3698.462,3656.923
1740095746.3075,4328.205,3738.462,4133.846,3727.179,3683.077
1740095746.3155,4397.949,3773.333,4130.769,3768.718,3718.462
1740095746.3233,4445.128,3772.821,4172.821,3781.538,3723.077
1740095746.3311,4469.744,3767.692,4216.923,3772.308,3717.436
1740095746.3389,4486.154,3773.846,4238.974,3756.41,3722.051
1740095746.3467,4445.128,3754.359,4224.615,3733.333,3702.564
1740095746.3546,4346.667,3698.462,4194.359,3698.974,3656.41
1740095746.3625,4307.692,3666.154,4171.795,3676.923,3634.359
1740095746.3705,4361.026,3662.564,4195.385,3668.718,3622.051
1740095746.3783,4408.205,3663.59,4214.872,3671.282,3618.974
1740095746.3863,4410.256,3686.667,4218.974,3691.795,3641.538
1740095746.3942,4406.154,3729.744,4203.077,3718.462,3669.231
1740095746.4022,4387.692,3746.667,4188.718,3731.282,3691.282
1740095746.41,4385.641,3741.026,4193.333,3748.205,3715.897
1740095746.418,4422.564,3740.513,4227.179,3756.41,3710.256
1740095746.426,4424.615,3733.333,4240.513,3734.872,3679.487
1740095746.4339,4377.436,3716.923,4236.41,3717.949,3666.154
1740095746.4417,4369.231,3708.205,4241.538,3713.846,3659.487
1740095746.4497,4389.744,3706.667,4238.462,3703.59,3656.41
1740095746.4577,4356.923,3702.564,4206.154,3695.385,3660.513
1740095746.4655,4340.513,3708.205,4185.128,3705.641,3667.179
1740095746.4732,4387.692,3719.487,4206.154,3718.974,3675.897
1740095746.4811,4410.256,3731.795,4231.795,3730.256,3683.59
1740095746.4889,4387.692,3751.795,4249.231,3745.641,3691.282
1740095746.4967,4400,3766.667,4250.256,3760,3710.256
1740095746.5045,4393.846,3749.231,4248.205,3749.744,3706.667
1740095746.5122,4356.923,3734.359,4221.538,3742.051,3693.333
1740095746.52,4346.667,3748.718,4190.769,3764.103,3706.154
1740095746.5278,4354.872,3753.333,4174.872,3782.564,3715.897
1740095746.5356,4361.026,3735.897,4200,3770.769,3704.103
1740095746.5434,4367.179,3727.692,4204.615,3758.462,3692.308
1740095746.5511,4375.385,3728.205,4194.359,3755.385,3683.077
1740095746.5589,4383.59,3741.026,4200.513,3752.308,3684.103
1740095746.5667,4375.385,3759.487,4187.179,3750.256,3695.385
1740095746.5745,4350.769,3766.154,4136.41,3764.615,3707.179
1740095746.5823,4369.231,3777.949,4137.949,3797.949,3729.231
1740095746.59,4402.051,3804.103,4176.41,3825.128,3758.462
1740095746.5978,4363.077,3813.333,4188.205,3834.359,3770.256
1740095746.6058,4311.795,3799.487,4198.462,3834.359,3764.103
1740095746.6138,4330.256,3795.897,4220,3829.744,3753.846
1740095746.6216,4358.974,3805.128,4226.154,3823.59,3749.744
1740095746.6295,4377.436,3819.487,4219.487,3835.385,3767.692
1740095746.6373,4402.051,3835.385,4216.41,3845.641,3780
1740095746.6451,4406.154,3847.692,4180,3844.615,3776.41
1740095746.6529,4377.436,3854.872,4154.359,3853.846,3784.103
1740095746.6607,4365.128,3872.821,4150.256,3887.692,3818.462
1740095746.6686,4361.026,3891.282,4160.513,3912.821,3842.051
1740095746.6764,4361.026,3903.59,4174.872,3926.667,3845.128
1740095746.6844,4381.538,3914.872,4205.128,3945.128,3857.436
1740095746.6922,4412.308,3917.949,4210.769,3950.769,3871.282
1740095746.7002,4416.41,3895.385,4208.205,3925.641,3851.282
1740095746.7081,4397.949,3883.59,4228.205,3907.692,3830.256
1740095746.7161,4408.205,3895.897,4258.462,3912.821,3833.846
1740095746.7241,4428.718,3878.974,4249.744,3898.462,3818.462
1740095746.7321,4397.949,3864.615,4236.923,3888.205,3809.231
1740095746.7399,4352.821,3894.872,4244.103,3911.795,3844.103
1740095746.7478,4377.436,3925.641,4236.923,3933.846,3869.231
1740095746.7556,4418.462,3924.615,4211.282,3931.795,3858.462
1740095746.7636,4432.821,3934.359,4196.41,3946.154,3872.308
1740095746.7714,4432.821,3957.436,4210.769,3963.077,3890.769
1740095746.7794,4424.615,3955.897,4218.462,3955.385,3874.872
1740095746.7873,4443.077,3947.692,4229.231,3959.487,3866.667
1740095746.7953,4486.154,3970.769,4231.282,3982.564,3893.333
1740095746.8031,4457.436,3982.564,4231.282,3973.333,3899.487
1740095746.8111,4400,3968.205,4234.359,3950.769,3882.051
1740095746.8189,4402.051,3970.769,4245.128,3958.462,3882.564
1740095746.8268,4400,3976.923,4223.077,3964.615,3887.179
1740095746.8346,4356.923,3957.436,4206.667,3954.872,3876.41
1740095746.8426,4334.359,3949.231,4207.179,3960,3874.872
1740095746.8504,4330.256,3949.744,4211.795,3958.974,3882.564
1740095746.8582,4344.615,3947.179,4218.462,3958.462,3885.641
1740095746.8659,4389.744,3979.487,4243.077,3996.41,3902.564
1740095746.8737,4418.462,4017.436,4271.795,4026.667,3925.128
1740095746.8815,4434.872,4027.692,4293.333,4025.128,3941.026
1740095746.8895,4471.795,4038.462,4294.872,4032.821,3949.744
1740095746.8975,4492.308,4043.077,4285.128,4034.872,3938.462
1740095746.9054,4473.846,4014.359,4285.641,4007.692,3917.949
1740095746.9134,4447.179,3993.333,4267.692,3994.872,3921.026
1740095746.9214,4438.974,3996.923,4246.154,4001.026,3930.256
1740095746.9294,4471.795,4011.282,4231.282,4015.385,3941.026
1740095746.9374,4467.692,4028.205,4216.41,4038.462,3955.897
1740095746.9453,4408.205,4035.385,4186.154,4052.821,3963.59
1740095746.9531,4389.744,4021.538,4184.615,4045.128,3958.974
1740095746.9609,4422.564,4005.641,4200.513,4032.821,3951.795
1740095746.9689,4447.179,4015.897,4214.872,4038.974,3956.923
1740095746.9769,4459.487,4042.051,4207.179,4061.026,3984.103
1740095746.9848,4482.051,4051.282,4206.667,4078.974,4008.205
1740095746.9928,4480,4042.051,4201.026,4075.897,4003.59
1740095747.0008,4449.231,4033.846,4197.949,4063.59,3985.128
1740095747.0086,4420.513,4042.051,4216.923,4067.692,3987.692
1740095747.0166,4414.359,4056.923,4243.59,4079.487,4003.59
1740095747.0243,4389.744,4052.821,4233.846,4074.359,3998.462
1740095747.0323,4379.487,4042.051,4228.205,4062.564,3986.154
1740095747.0403,4443.077,4046.667,4250.769,4066.667,3990.769
1740095747.0483,4488.205,4058.462,4241.538,4072.821,3997.949
1740095747.0561,4477.949,4051.282,4216.923,4056.923,3984.103
1740095747.0641,4451.282,4039.487,4212.821,4047.692,3975.385
1740095747.0718,4410.256,4030.769,4228.205,4050.256,3978.462
1740095747.0798,4432.821,4040,4218.974,4055.897,3988.205
1740095747.0876,4461.538,4049.231,4211.795,4053.333,3978.974
1740095747.0956,4406.154,4045.128,4208.718,4056.41,3971.795
1740095747.1036,4379.487,4044.615,4201.026,4075.385,4002.564
1740095747.1115,4432.821,4050.256,4185.128,4082.564,4020.513
1740095747.1195,4424.615,4038.974,4201.026,4065.128,3990.769
1740095747.1275,4402.051,4029.231,4221.026,4068.205,3987.692
1740095747.1355,4434.872,4041.026,4221.026,4091.282,4010.769
1740095747.1435,4420.513,4025.128,4209.231,4067.179,3972.821
1740095747.1514,4375.385,3991.795,4211.282,4025.128,3928.205
1740095747.1594,4373.333,4010.256,4214.359,4047.692,3962.564
1740095747.1674,4377.436,4050.256,4226.154,4088.205,4007.179
1740095747.1754,4365.128,4049.231,4241.026,4070.256,3997.949
1740095747.1834,4361.026,4036.923,4243.59,4031.795,3981.538
1740095747.1911,4369.231,4027.179,4240,4020,3973.846
1740095747.1989,4404.103,4017.949,4227.179,4027.179,3966.667
1740095747.2067,4432.821,4031.282,4218.462,4036.923,3977.949
1740095747.2145,4422.564,4050.256,4198.462,4045.128,3998.974
1740095747.2225,4367.179,4045.128,4189.231,4040,4004.615
1740095747.2304,4305.641,4053.333,4177.949,4051.795,4017.436
1740095747.2384,4266.667,4067.692,4168.718,4071.795,4016.923
1740095747.2462,4266.667,4058.974,4172.308,4066.154,3999.487
1740095747.254,4293.333,4046.667,4215.385,4053.846,4003.077
1740095747.2618,4313.846,4042.564,4230.769,4056.923,4008.205
1740095747.2697,4311.795,4046.154,4230.256,4060.513,4000.513
1740095747.2775,4276.923,4054.359,4252.821,4053.333,4006.667
1740095747.2855,4281.026,4050.769,4271.282,4049.231,4011.282
1740095747.2933,4348.718,4050.769,4256.923,4057.949,4003.59
1740095747.3013,4363.077,4069.231,4251.282,4062.564,4005.641
1740095747.3092,4289.231,4076.41,4244.615,4052.308,4006.667
1740095747.3172,4248.205,4070.256,4229.231,4051.282,4014.872
1740095747.325,4272.821,4082.564,4230.769,4074.359,4049.231
1740095747.333,4307.692,4102.564,4216.923,4101.538,4075.897
1740095747.3408,4348.718,4106.667,4196.923,4111.795,4073.333
1740095747.3487,4361.026,4102.051,4191.795,4111.795,4072.821
1740095747.3565,4342.564,4101.026,4190.256,4123.077,4086.667
1740095747.3645,4361.026,4111.795,4171.795,4150.769,4107.692
1740095747.3723,4397.949,4112.308,4176.923,4150.769,4104.103
1740095747.3803,4395.897,4102.564,4179.487,4129.744,4090.769
1740095747.388,4352.821,4086.667,4177.949,4110.256,4083.077
1740095747.396,4324.103,4074.872,4196.41,4097.949,4074.872
1740095747.404,4332.308,4076.41,4224.103,4097.949,4069.231
1740095747.412,4356.923,4082.564,4225.128,4108.718,4072.308
1740095747.4198,4379.487,4074.872,4236.923,4107.179,4066.667
1740095747.4275,4408.205,4062.051,4250.769,4097.949,4062.564
1740095747.4353,4412.308,4066.667,4255.897,4105.128,4083.59
1740095747.4431,4356.923,4074.872,4245.641,4109.231,4084.615
1740095747.4509,4313.846,4079.487,4233.846,4114.872,4067.179
1740095747.4589,4344.615,4088.718,4223.59,4122.564,4081.538
1740095747.4668,4397.949,4102.051,4217.949,4114.872,4094.359
1740095747.4748,4416.41,4101.026,4207.179,4098.974,4072.308
1740095747.4828,4438.974,4092.821,4201.026,4109.231,4080.513
1740095747.4906,4441.026,4097.436,4228.718,4123.59,4109.231
1740095747.4984,4352.821,4105.641,4228.718,4114.872,4095.385
1740095747.5063,4264.615,4097.949,4217.949,4107.692,4080.513
1740095747.5143,4287.179,4101.538,4220,4121.026,4110.769
1740095747.5221,4336.41,4105.641,4219.487,4123.077,4122.564
1740095747.5301,4336.41,4091.795,4193.333,4107.692,4098.462
1740095747.5381,4344.615,4080.513,4189.744,4098.462,4082.564
1740095747.5459,4373.333,4086.154,4187.692,4102.051,4087.692
1740095747.5537,4383.59,4092.308,4176.41,4104.615,4099.487
1740095747.5615,4377.436,4108.718,4165.128,4115.385,4114.359
1740095747.5695,4385.641,4137.436,4158.974,4136.923,4129.744
1740095747.5773,4412.308,4143.077,4136.923,4144.103,4132.308
1740095747.5852,4445.128,4137.949,4134.872,4140.513,4130.256
1740095747.593,4477.949,4136.923,4148.205,4142.564,4132.308
1740095747.601,4506.667,4112.308,4145.641,4135.897,4114.359
1740095747.6088,4523.077,4078.974,4136.923,4106.154,4076.41
1740095747.6168,4523.077,4071.795,4144.615,4083.59,4056.923
1740095747.6245,4525.128,4064.103,4166.154,4077.949,4050.769
1740095747.6325,4523.077,4043.59,4175.897,4067.692,4036.923
1740095747.6403,4514.872,4047.179,4180.513,4056.923,4026.154
1740095747.6483,4521.026,4068.718,4177.436,4061.026,4040.513
1740095747.6561,4516.923,4059.487,4207.179,4054.359,4045.641
1740095747.664,4512.821,4059.487,4250.769,4058.462,4055.897
1740095747.6718,4510.769,4090.256,4280.513,4078.462,4078.974
1740095747.6798,4465.641,4084.615,4274.872,4069.744,4063.077
1740095747.6876,4428.718,4047.179,4275.385,4044.615,4032.308
1740095747.6956,4459.487,4055.897,4276.41,4058.974,4055.385
1740095747.7033,4428.718,4071.795,4253.333,4071.795,4074.359
1740095747.7111,4307.692,4036.923,4202.051,4045.641,4033.333
1740095747.7189,4264.615,4006.667,4181.538,4025.641,4004.615
1740095747.7269,4330.256,4023.077,4184.615,4039.487,4026.667
1740095747.7349,4389.744,4049.231,4177.949,4068.205,4063.077
1740095747.7428,4395.897,4051.282,4169.744,4076.41,4073.846
1740095747.7508,4406.154,4051.282,4163.077,4069.744,4065.128
1740095747.7586,4436.923,4069.744,4149.231,4086.154,4076.923
1740095747.7664,4426.667,4081.538,4151.795,4103.59,4097.436
1740095747.7742,4367.179,4067.179,4167.179,4088.205,4090.256
1740095747.782,4322.051,4059.487,4152.821,4091.282,4087.692
1740095747.7897,4315.897,4058.462,4152.308,4115.897,4101.026
1740095747.7975,4320,4058.974,4160,4113.846,4104.615
1740095747.8053,4311.795,4069.231,4153.846,4094.872,4090.256
1740095747.8131,4295.385,4073.846,4141.538,4091.795,4081.026
1740095747.8209,4305.641,4070.256,4175.385,4097.436,4089.231
1740095747.8288,4320,4080.513,4208.205,4106.154,4105.128
1740095747.8368,4301.538,4084.103,4225.128,4102.051,4096.923
1740095747.8448,4297.436,4075.385,4233.333,4090.769,4084.615
1740095747.8528,4340.513,4078.462,4243.59,4097.949,4093.846
1740095747.8608,4381.538,4084.615,4236.923,4114.872,4108.718
1740095747.8687,4404.103,4076.923,4220.513,4123.077,4113.846
1740095747.8767,4397.949,4067.179,4208.718,4117.436,4099.487
1740095747.8845,4395.897,4075.897,4197.436,4118.974,4087.179
1740095747.8923,4436.923,4098.974,4179.487,4142.564,4108.718
1740095747.9003,4477.949,4125.128,4169.744,4173.846,4146.667
1740095747.9082,4451.282,4147.179,4166.667,4193.333,4168.718
1740095747.9162,4422.564,4160,4143.59,4202.564,4180
1740095747.924,4436.923,4155.385,4149.231,4199.487,4180
1740095747.932,4445.128,4152.821,4198.974,4203.59,4173.846
1740095747.9398,4428.718,4147.179,4245.128,4197.949,4163.077
1740095747.9477,4397.949,4124.615,4244.615,4169.231,4143.077
1740095747.9555,4375.385,4102.564,4243.59,4158.974,4125.128
1740095747.9635,4395.897,4109.231,4242.051,4182.051,4138.462
1740095747.9713,4434.872,4124.615,4254.872,4193.846,4155.385
1740095747.9793,4465.641,4130.769,4258.462,4200,4157.436
1740095747.987,4506.667,4140,4251.282,4225.641,4168.718
1740095747.995,4555.897,4157.949,4242.564,4253.333,4193.846
1740095748.0028,4555.897,4168.205,4236.923,4263.077,4209.744
1740095748.0108,4510.769,4161.538,4212.821,4262.564,4209.744
1740095748.0188,4486.154,4154.872,4191.795,4264.103,4210.256
1740095748.0265,4504.615,4151.795,4189.231,4267.692,4208.205
1740095748.0343,4521.026,4148.718,4181.026,4260.513,4202.564
1740095748.0423,4486.154,4155.385,4156.923,4250.769,4202.051
1740095748.0503,4438.974,4163.077,4133.333,4253.846,4203.59
1740095748.0583,4410.256,4151.795,4142.564,4260,4194.872
1740095748.0662,4389.744,4138.462,4160,4253.846,4178.974
1740095748.074,4389.744,4140.513,4175.897,4232.308,4168.718
1740095748.0818,4424.615,4136.923,4188.718,4225.128,4162.564
1740095748.0896,4451.282,4114.359,4215.897,4224.103,4146.667
1740095748.0974,4443.077,4109.231,4227.179,4211.282,4138.974
1740095748.1051,4459.487,4120,4241.538,4205.128,4155.385
1740095748.1129,4514.872,4132.821,4249.231,4224.615,4172.821
1740095748.1207,4512.821,4148.205,4249.744,4236.41,4169.744
1740095748.1285,4469.744,4154.359,4243.59,4233.846,4168.718
1740095748.1363,4438.974,4152.308,4262.564,4242.564,4182.051
1740095748.144,4365.128,4150.256,4269.744,4247.179,4175.385
1740095748.152,4276.923,4149.744,4249.231,4246.154,4163.59
1740095748.16,4274.872,4166.667,4247.692,4265.128,4189.231
1740095748.168,4324.103,4189.744,4268.718,4278.462,4215.385
1740095748.176,4344.615,4179.487,4250.256,4261.026,4201.538
1740095748.1837,4387.692,4165.641,4213.846,4265.128,4199.487
1740095748.1915,4395.897,4172.821,4207.179,4288.205,4220.513
1740095748.1993,4340.513,4172.308,4200,4278.462,4209.744
1740095748.2071,4330.256,4160.513,4196.41,4249.744,4172.308
1740095748.2151,4367.179,4174.359,4213.333,4258.462,4185.641
1740095748.2228,4365.128,4194.359,4242.051,4276.41,4215.385
1740095748.2308,4365.128,4192.821,4237.949,4269.744,4199.487
1740095748.2388,4397.949,4175.385,4230.769,4260,4181.026
1740095748.2468,4400,4164.615,4222.051,4267.179,4194.359
1740095748.2548,4369.231,4163.59,4211.795,4268.718,4183.59
1740095748.2627,4365.128,4161.538,4171.795,4256.41,4166.154
1740095748.2705,4414.359,4166.667,4148.718,4253.333,4199.487
1740095748.2785,4488.205,4184.103,4168.205,4261.026,4226.154
1740095748.2863,4508.718,4201.538,4206.667,4273.846,4206.667
1740095748.2943,4471.795,4209.744,4234.872,4289.744,4194.872
1740095748.302,4453.333,4201.026,4252.821,4290.769,4202.564
1740095748.31,4451.282,4188.718,4248.718,4284.615,4204.103
1740095748.318,4424.615,4196.923,4227.179,4297.436,4211.282
1740095748.326,4397.949,4212.821,4210.769,4312.308,4229.744
1740095748.334,4375.385,4198.462,4207.179,4288.718,4217.949
1740095748.3419,4317.949,4162.051,4222.564,4252.308,4174.359
1740095748.3497,4289.231,4156.41,4230.256,4254.359,4161.538
1740095748.3575,4330.256,4168.205,4226.154,4271.795,4177.436
1740095748.3655,4361.026,4176.923,4231.282,4277.436,4174.872
1740095748.3733,4371.282,4185.641,4255.897,4283.59,4161.538
1740095748.3811,4400,4183.077,4247.692,4298.974,4172.308
1740095748.3888,4391.795,4165.128,4242.051,4297.949,4183.59
1740095748.3968,4363.077,4166.154,4239.487,4278.462,4176.41
1740095748.4046,4387.692,4168.205,4218.974,4270.256,4157.949
1740095748.4126,4420.513,4144.103,4175.897,4291.795,4155.897
1740095748.4206,4404.103,4141.026,4168.718,4324.615,4168.205
1740095748.4285,4375.385,4176.923,4176.923,4342.051,4171.282
1740095748.4365,4373.333,4196.923,4189.744,4338.462,4181.538
1740095748.4445,4387.692,4196.41,4218.462,4325.128,4201.026
1740095748.4525,4430.769,4203.59,4252.308,4317.436,4200
1740095748.4605,4469.744,4193.333,4264.103,4307.179,4170.256
1740095748.4684,4447.179,4169.744,4255.897,4288.205,4146.667
1740095748.4764,4395.897,4167.692,4258.974,4282.564,4148.205
1740095748.4842,4379.487,4167.692,4264.615,4291.795,4157.436
1740095748.492,4365.128,4149.744,4263.59,4287.692,4150.256
1740095748.4998,4346.667,4161.026,4237.436,4294.872,4155.385
1740095748.5075,4367.179,4188.718,4215.385,4303.077,4171.795
1740095748.5155,4412.308,4194.872,4206.667,4289.744,4166.667
1740095748.5233,4443.077,4190.256,4219.487,4276.41,4148.718
1740095748.5313,4473.846,4187.179,4229.744,4284.615,4145.641
1740095748.5393,4475.897,4176.923,4244.103,4288.205,4142.051
1740095748.5472,4443.077,4162.564,4233.333,4268.718,4123.077
1740095748.5552,4422.564,4142.051,4208.205,4244.615,4096.41
1740095748.5632,4428.718,4140.513,4189.231,4251.282,4098.974
1740095748.5712,4434.872,4165.128,4190.256,4275.897,4130.256
1740095748.5792,4432.821,4174.359,4180.513,4277.949,4147.692
1740095748.5869,4418.462,4175.897,4180.513,4277.436,4154.359
1740095748.5949,4352.821,4191.282,4194.872,4289.231,4163.077
1740095748.6027,4266.667,4194.872,4197.949,4285.128,4160
1740095748.6105,4250.256,4174.359,4194.872,4270.256,4154.872
1740095748.6183,4307.692,4154.872,4205.641,4261.026,4154.359
1740095748.6262,4342.564,4134.359,4218.462,4239.487,4126.154
1740095748.634,4350.769,4124.103,4211.795,4222.564,4096.41
1740095748.642,4371.282,4136.41,4211.282,4226.667,4109.744
1740095748.65,4377.436,4147.179,4205.128,4230.769,4131.795
1740095748.658,4356.923,4132.308,4203.59,4219.487,4114.359
1740095748.6659,4373.333,4118.974,4209.744,4214.872,4092.308
1740095748.6737,4418.462,4130.256,4234.872,4227.692,4108.205
1740095748.6817,4418.462,4138.974,4237.436,4234.359,4124.103
1740095748.6895,4375.385,4114.872,4235.385,4215.897,4101.538
1740095748.6973,4356.923,4096.923,4233.333,4214.872,4090.256
1740095748.705,4361.026,4103.59,4233.333,4235.385,4102.051
1740095748.7128,4334.359,4105.128,4233.846,4228.718,4099.487
1740095748.7206,4315.897,4110.256,4252.821,4214.359,4102.051
1740095748.7284,4361.026,4142.051,4276.41,4238.462,4139.487
1740095748.7364,4404.103,4168.718,4292.821,4264.615,4164.615
1740095748.7443,4400,4160,4294.872,4255.897,4142.564
1740095748.7523,4404.103,4151.795,4283.077,4260,4135.897
1740095748.7603,4397.949,4153.333,4266.667,4267.692,4153.333
1740095748.7683,4348.718,4139.487,4241.026,4248.718,4147.692
1740095748.7763,4293.333,4123.077,4231.795,4235.897,4130.769
1740095748.784,4262.564,4126.667,4245.641,4247.179,4135.385
1740095748.7919,4221.538,4122.564,4264.615,4239.487,4127.692
1740095748.7997,4186.667,4125.641,4272.821,4234.872,4113.846
1740095748.8075,4198.974,4161.026,4290.769,4268.205,4145.641
1740095748.8153,4233.846,4178.974,4279.487,4291.282,4182.051
1740095748.823,4237.949,4163.59,4268.718,4281.538,4178.462
1740095748.831,4264.615,4179.487,4256.41,4289.744,4188.205
1740095748.839,4340.513,4203.077,4231.795,4304.615,4204.103
1740095748.847,4377.436,4185.128,4210.256,4283.59,4181.026
1740095748.8548,4350.769,4158.974,4231.282,4250.256,4150.769
1740095748.8627,4346.667,4150.769,4250.769,4244.103,4150.769
1740095748.8705,4373.333,4160.513,4242.051,4255.385,4160
1740095748.8785,4375.385,4173.333,4215.385,4253.846,4158.974
1740095748.8863,4367.179,4170.769,4197.949,4255.385,4161.538
1740095748.8943,4350.769,4164.615,4194.872,4274.359,4169.231
1740095748.902,4295.385,4176.41,4187.179,4282.564,4175.897
1740095748.91,4233.846,4184.103,4182.051,4270.256,4170.769
1740095748.9178,4235.897,4193.333,4181.026,4271.282,4182.051
1740095748.9258,4262.564,4205.641,4203.59,4277.949,4197.436
1740095748.9336,4258.462,4200.513,4229.744,4269.744,4185.128
1740095748.9415,4235.897,4178.974,4236.41,4252.308,4157.436
1740095748.9495,4235.897,4166.154,4227.179,4246.154,4153.333
1740095748.9573,4254.359,4155.385,4237.949,4243.077,4156.41
1740095748.9653,4256.41,4140.513,4226.154,4235.385,4135.897
1740095748.9731,4246.154,4133.846,4202.564,4232.821,4126.154
1740095748.9808,4246.154,4143.59,4187.692,4248.205,4160
1740095748.9886,4248.205,4154.359,4183.077,4258.974,4181.538
1740095748.9964,4274.872,4167.692,4166.154,4268.718,4180
1740095749.0042,4350.769,4203.59,4185.128,4302.564,4215.385
1740095749.012,4371.282,4228.205,4228.205,4314.872,4250.769
1740095749.0198,4285.128,4206.667,4250.769,4288.718,4226.667
1740095749.0275,4229.744,4181.538,4243.077,4279.487,4203.59
1740095749.0353,4276.923,4191.282,4233.333,4294.872,4221.538
1740095749.0431,4274.872,4198.974,4218.462,4295.385,4225.641
1740095749.0511,4207.179,4190.256,4193.333,4289.231,4213.333
1740095749.0591,4205.128,4184.615,4204.103,4283.59,4209.231
1740095749.0668,4252.308,4181.026,4237.949,4270.256,4209.744
1740095749.0746,4254.359,4168.205,4255.385,4255.897,4198.974
1740095749.0826,4250.256,4179.487,4231.282,4267.179,4202.564
1740095749.0906,4262.564,4201.026,4212.308,4287.692,4224.103
1740095749.0984,4260.513,4217.436,4203.59,4309.744,4245.128
1740095749.1061,4258.462,4247.692,4208.718,4328.718,4253.333
1740095749.1139,4276.923,4263.077,4212.821,4323.077,4246.154
1740095749.1217,4287.179,4240,4235.385,4305.128,4243.59
1740095749.1295,4305.641,4214.872,4237.436,4300,4243.077
1740095749.1373,4342.564,4206.154,4226.154,4297.436,4219.487
1740095749.1452,4375.385,4205.641,4220,4298.462,4213.333
1740095749.1532,4377.436,4202.564,4202.051,4302.564,4241.026
1740095749.1612,4342.564,4193.846,4165.128,4294.359,4243.077
1740095749.1692,4287.179,4195.897,4169.231,4287.179,4225.641
1740095749.1772,4260.513,4205.128,4210.769,4291.795,4230.769
1740095749.1849,4266.667,4208.718,4234.359,4294.359,4239.487
1740095749.1929,4260.513,4217.436,4248.718,4296.923,4236.41
1740095749.2007,4248.205,4226.154,4262.564,4305.128,4243.077
1740095749.2087,4244.103,4218.974,4280,4310.256,4250.256
1740095749.2165,4244.103,4216.923,4269.744,4312.821,4244.103
1740095749.2244,4229.744,4205.128,4253.846,4292.821,4224.103
1740095749.2322,4219.487,4174.872,4253.333,4265.641,4211.282
1740095749.2402,4231.795,4168.718,4280.513,4262.564,4215.897
1740095749.248,4260.513,4198.974,4276.41,4278.974,4231.795
1740095749.256,4256.41,4213.333,4259.487,4277.436,4233.333
1740095749.2639,4248.205,4203.077,4263.077,4263.077,4223.077
1740095749.2717,4272.821,4204.615,4274.872,4271.795,4221.026
1740095749.2795,4285.128,4208.205,4270.256,4289.231,4226.154
1740095749.2875,4278.974,4197.436,4273.333,4282.051,4231.795
1740095749.2955,4278.974,4179.487,4265.128,4262.051,4229.744
1740095749.3032,4266.667,4138.974,4242.564,4230.256,4189.744
1740095749.311,4227.692,4088.205,4216.41,4188.205,4127.179
1740095749.319,4184.615,4076.923,4190.769,4162.564,4102.051
1740095749.327,4155.897,4088.205,4182.564,4150.256,4106.154
1740095749.3348,4168.205,4095.385,4206.154,4149.231,4113.846
1740095749.3425,4180.513,4097.949,4229.744,4151.795,4112.308
1740095749.3503,4180.513,4100.513,4229.744,4152.821,4110.769
1740095749.3581,4209.231,4103.59,4250.769,4158.974,4135.385
1740095749.3659,4244.103,4115.385,4269.231,4174.359,4163.59
1740095749.3737,4235.897,4105.128,4268.718,4166.154,4139.487
1740095749.3816,4217.436,4077.949,4262.051,4140,4097.949
1740095749.3896,4184.615,4062.051,4257.949,4118.462,4085.128
1740095749.3974,4147.692,4054.359,4222.051,4102.564,4088.718
1740095749.4054,4172.308,4049.231,4194.359,4095.385,4090.256
1740095749.4132,4219.487,4057.949,4172.308,4107.692,4096.923
1740095749.4209,4196.923,4075.385,4157.436,4124.103,4107.692
1740095749.4287,4155.897,4085.641,4168.205,4132.821,4116.41
1740095749.4365,4172.308,4093.333,4209.231,4143.077,4136.923
1740095749.4445,4217.436,4109.231,4237.436,4161.026,4155.897
1740095749.4523,4225.641,4121.026,4257.436,4169.231,4142.564
1740095749.4602,4205.128,4110.769,4272.308,4159.487,4127.179
1740095749.468,4201.026,4081.026,4263.59,4141.026,4126.154
1740095749.476,4229.744,4061.026,4249.744,4122.051,4108.205
1740095749.4838,4283.077,4069.231,4225.128,4121.026,4095.897
1740095749.4918,4301.538,4071.282,4189.744,4126.667,4096.41
1740095749.4995,4274.872,4061.538,4155.897,4118.974,4086.667
1740095749.5075,4250.256,4070.769,4157.436,4111.795,4086.667
1740095749.5153,4276.923,4095.897,4170.256,4127.179,4105.128
1740095749.5233,4328.205,4114.872,4196.923,4154.872,4123.59
1740095749.5311,4354.872,4132.308,4226.154,4176.41,4154.359
1740095749.539,4346.667,4128.718,4249.744,4171.282,4157.949
1740095749.547,4352.821,4098.974,4243.59,4149.231,4118.462
1740095749.555,4395.897,4087.692,4248.205,4145.641,4103.59
1740095749.563,4416.41,4103.077,4242.564,4164.103,4127.179
1740095749.571,4387.692,4107.692,4214.359,4174.359,4138.462
1740095749.5787,4352.821,4099.487,4189.231,4162.051,4128.718
1740095749.5865,4330.256,4096.41,4188.205,4145.641,4119.487
1740095749.5943,4309.744,4102.051,4183.077,4148.205,4131.795
1740095749.6023,4287.179,4109.231,4173.846,4157.949,4154.872
1740095749.6103,4260.513,4089.744,4167.692,4145.641,4138.974
1740095749.618,4278.974,4067.692,4169.231,4132.308,4102.564
1740095749.6258,4346.667,4077.949,4191.282,4142.051,4108.718
1740095749.6336,4393.846,4096.923,4202.051,4154.359,4140.513
1740095749.6414,4381.538,4095.897,4206.154,4136.923,4130.769
1740095749.6492,4385.641,4102.051,4210.769,4128.205,4114.359
1740095749.657,4414.359,4110.769,4222.564,4153.333,4127.179
1740095749.6647,4420.513,4114.872,4222.051,4175.897,4144.103
1740095749.6725,4436.923,4116.41,4220,4171.282,4141.026
1740095749.6805,4465.641,4111.795,4207.179,4171.282,4135.897
1740095749.6885,4451.282,4100.513,4206.154,4165.128,4132.821
1740095749.6965,4422.564,4095.385,4202.051,4131.795,4121.026
1740095749.7044,4430.769,4088.718,4207.692,4111.282,4101.026
1740095749.7122,4438.974,4081.026,4216.41,4117.436,4086.667
1740095749.72,4434.872,4081.538,4223.077,4124.615,4097.436
1740095749.728,4438.974,4084.615,4206.154,4133.333,4116.41
1740095749.736,4432.821,4084.615,4185.128,4136.923,4114.359
1740095749.7439,4418.462,4082.051,4180,4133.846,4112.308
1740095749.7519,4430.769,4090.769,4182.564,4146.667,4131.795
1740095749.7599,4443.077,4104.103,4184.103,4158.462,4141.026
1740095749.7677,4426.667,4112.821,4187.692,4148.205,4130.769
1740095749.7757,4418.462,4112.821,4220.513,4131.795,4129.231
1740095749.7834,4430.769,4109.231,4236.41,4127.179,4140
1740095749.7914,4443.077,4106.154,4232.821,4137.949,4144.615
1740095749.7992,4471.795,4108.205,4233.333,4162.564,4156.41
1740095749.8072,4500.513,4104.615,4235.385,4178.974,4171.795
1740095749.815,4498.462,4107.179,4215.897,4213.333,4190.769
1740095749.8229,4490.256,4127.179,4217.436,4274.872,4227.179
1740095749.8307,4486.154,4146.154,4203.077,4319.487,4276.923
1740095749.8387,4469.744,4145.128,4176.41,4330.769,4289.231
1740095749.8467,4436.923,4128.205,4188.718,4329.231,4264.103
1740095749.8547,4420.513,4109.744,4229.231,4321.026,4266.667
1740095749.8626,4418.462,4098.974,4229.744,4313.846,4278.974
1740095749.8706,4424.615,4097.436,4230.256,4312.821,4254.359
1740095749.8786,4420.513,4109.744,4225.128,4308.718,4242.051
1740095749.8866,4402.051,4118.462,4188.205,4296.923,4255.897
1740095749.8946,4389.744,4107.692,4174.872,4281.026,4247.692
1740095749.9023,4404.103,4117.949,4186.667,4272.308,4245.128
1740095749.9103,4400,4141.026,4175.385,4261.026,4246.154
1740095749.9183,4387.692,4131.795,4174.872,4240,4215.385
1740095749.9263,4404.103,4135.897,4230.256,4232.821,4204.615
1740095749.9343,4414.359,4164.103,4261.026,4240,4217.949
1740095749.9422,4379.487,4140,4251.795,4218.462,4185.128
1740095749.95,4365.128,4111.282,4237.436,4193.846,4155.897
1740095749.9578,4369.231,4130.256,4232.821,4191.795,4164.103
1740095749.9656,4361.026,4143.077,4217.949,4192.308,4169.231
1740095749.9734,4369.231,4138.462,4220,4190.769,4169.744
1740095749.9811,4387.692,4159.487,4212.308,4199.487,4181.538
1740095749.9889,4381.538,4175.897,4211.282,4198.974,4183.077
1740095749.9969,4371.282,4170.256,4228.718,4190.256,4181.538
1740095750.0049,4361.026,4173.846,4257.949,4184.103,4174.359
1740095750.0127,4338.462,4170.769,4267.179,4167.692,4152.308
1740095750.0206,4334.359,4151.795,4270.256,4149.744,4145.128
1740095750.0284,4344.615,4149.231,4265.641,4148.718,4149.744
1740095750.0362,4342.564,4159.487,4249.231,4158.974,4141.026
1740095750.044,4334.359,4146.667,4238.462,4154.872,4128.205
1740095750.0518,4348.718,4139.487,4234.359,4147.179,4132.821
1740095750.0597,4369.231,4155.897,4238.974,4151.795,4142.051
1740095750.0675,4377.436,4172.308,4235.385,4167.179,4161.538
1740095750.0755,4373.333,4175.385,4238.462,4177.949,4184.103
1740095750.0835,4367.179,4177.949,4232.821,4188.205,4189.744
1740095750.0915,4358.974,4177.436,4215.385,4192.821,4185.128
1740095750.0994,4342.564,4166.667,4183.077,4179.487,4176.923
1740095750.1074,4328.205,4146.154,4179.487,4158.462,4153.846
1740095750.1154,4330.256,4141.538,4183.077,4152.821,4143.59
1740095750.1234,4328.205,4158.974,4176.923,4157.949,4163.077
1740095750.1314,4320,4171.282,4154.872,4168.718,4184.103
1740095750.1393,4334.359,4173.846,4158.974,4183.59,4178.462
1740095750.1473,4356.923,4181.026,4187.179,4191.282,4165.641
1740095750.1551,4356.923,4190.769,4209.744,4192.821,4187.179
1740095750.1629,4350.769,4200,4209.744,4195.897,4217.436
1740095750.1707,4340.513,4185.128,4214.872,4174.872,4190.769
1740095750.1786,4322.051,4148.718,4220.513,4146.154,4140.513
1740095750.1864,4346.667,4148.718,4210.769,4156.41,4150.256
1740095750.1942,4383.59,4176.41,4200,4173.333,4182.564
1740095750.202,4375.385,4185.128,4184.615,4172.821,4191.282
1740095750.2098,4348.718,4176.41,4167.692,4183.077,4190.256
1740095750.2175,4377.436,4190.769,4155.897,4220,4203.077
1740095750.2253,4414.359,4215.385,4166.667,4238.974,4230.769
1740095750.2331,4385.641,4212.821,4176.923,4218.462,4244.615
1740095750.2409,4332.308,4198.462,4198.974,4192.821,4225.128
1740095750.2487,4346.667,4212.308,4228.718,4202.564,4216.41
1740095750.2565,4397.949,4234.872,4257.436,4220,4235.385
1740095750.2642,4402.051,4229.744,4242.564,4212.821,4244.103
1740095750.2722,4381.538,4205.128,4219.487,4201.026,4229.231
1740095750.2802,4385.641,4193.846,4209.744,4211.795,4229.231
1740095750.2882,4381.538,4197.949,4206.667,4221.538,4240
1740095750.296,4361.026,4198.462,4175.897,4213.846,4234.359
1740095750.3037,4354.872,4201.538,4148.205,4206.154,4226.667
1740095750.3117,4358.974,4216.41,4173.846,4210.769,4233.846
1740095750.3197,4358.974,4228.205,4225.641,4215.385,4238.462
1740095750.3275,4346.667,4220,4238.462,4203.59,4231.282
1740095750.3353,4338.462,4210.769,4235.385,4198.974,4236.41
1740095750.343,4332.308,4197.436,4255.385,4198.462,4233.333
1740095750.3508,4332.308,4176.41,4250.256,4183.59,4208.718
1740095750.3586,4334.359,4169.231,4227.179,4176.41,4199.487
1740095750.3664,4342.564,4179.487,4208.205,4202.051,4219.487
1740095750.3744,4363.077,4189.231,4201.538,4217.436,4226.154
1740095750.3821,4344.615,4195.385,4187.179,4196.923,4220
1740095750.3901,4278.974,4191.282,4192.308,4171.282,4215.385
1740095750.3981,4272.821,4188.205,4205.641,4171.795,4212.821
1740095750.4061,4342.564,4195.385,4230.256,4185.128,4225.128
1740095750.4139,4356.923,4198.974,4242.564,4186.667,4238.974
1740095750.4218,4317.949,4182.564,4243.077,4171.282,4214.359
1740095750.4298,4322.051,4169.744,4231.282,4165.641,4193.333
1740095750.4378,4361.026,4175.897,4235.385,4178.974,4217.949
1740095750.4458,4387.692,4190.256,4243.59,4188.205,4234.872
1740095750.4538,4393.846,4208.205,4231.282,4198.462,4239.487
1740095750.4617,4369.231,4209.744,4193.846,4204.615,4248.205
